timestamps,TP9,AF7,AF8,TP10
1621565071.606,-39.062,1.465,-43.457,-52.734
1621565071.610,-57.617,-2.441,-52.246,-57.129
1621565071.614,-29.785,-6.348,-49.316,-23.926
1621565071.618,-25.879,-9.766,-49.805,-16.113
1621565071.622,-56.641,-7.324,-49.805,-43.457
1621565071.626,-56.152,-5.859,-41.992,-48.828
1621565071.630,-39.062,-7.812,-39.062,-31.738
1621565071.634,0.000,-6.348,-39.551,-5.859
1621565071.638,-24.902,-7.324,-44.922,-26.855
1621565071.642,-70.312,-9.277,-43.945,-49.805
1621565071.646,-46.875,-9.277,-40.527,-30.762
1621565071.649,-5.371,-7.324,-44.434,10.254
1621565071.653,-16.602,-13.672,-47.852,-19.531
1621565071.657,-43.945,-16.113,-41.016,-56.152
1621565071.661,-37.598,-15.625,-41.992,-39.062
1621565071.665,-13.184,-17.090,-42.969,-9.766
1621565071.669,-6.348,-13.184,-39.062,-5.371
1621565071.673,-41.992,-10.742,-41.992,-39.062
1621565071.677,-47.363,-11.719,-40.039,-39.551
1621565071.681,-16.602,-16.113,-40.039,-16.602
1621565071.685,-4.395,-20.020,-44.434,-12.207
1621565071.689,-31.738,-19.531,-38.574,-32.715
1621565071.693,-43.457,-19.043,-30.762,-35.156
1621565071.697,-20.508,-15.137,-26.855,-21.484
1621565071.701,7.812,-12.207,-25.879,-1.953
1621565071.705,-14.648,-12.207,-27.832,-27.832
1621565071.709,-56.641,-14.160,-31.738,-55.664
1621565071.713,-54.199,-13.184,-31.738,-38.574
1621565071.717,-11.719,-13.672,-30.762,-5.859
1621565071.720,-12.207,-17.090,-32.227,-14.648
1621565071.724,-41.992,-19.531,-37.598,-39.551
1621565071.728,-44.922,-16.602,-35.645,-38.574
1621565071.732,-16.113,-20.020,-33.203,-7.324
1621565071.736,1.953,-16.113,-31.250,10.742
1621565071.740,-21.973,-10.742,-31.250,-9.766
1621565071.744,-30.762,-16.113,-30.762,-19.531
1621565071.748,-11.230,-16.602,-23.926,2.441
1621565071.752,7.812,-13.184,-25.391,15.625
1621565071.756,-24.414,-16.113,-32.227,-22.949
1621565071.760,-53.711,-17.090,-34.668,-36.133
1621565071.764,-29.297,-15.625,-30.273,-13.672
1621565071.768,6.348,-16.602,-26.367,4.395
1621565071.772,-11.230,-17.090,-25.879,-13.184
1621565071.776,-43.457,-20.508,-28.320,-38.086
1621565071.780,-42.969,-23.438,-36.621,-38.086
1621565071.784,-17.090,-28.320,-38.086,-4.883
1621565071.788,-9.277,-19.531,-30.273,-8.301
1621565071.791,-41.016,-17.090,-32.227,-40.527
1621565071.795,-47.363,-20.020,-36.133,-36.133
1621565071.799,-24.902,-24.414,-39.062,-12.207
1621565071.803,-8.789,-30.762,-38.574,-8.301
1621565071.807,-38.086,-25.879,-36.133,-47.852
1621565071.811,-52.246,-19.531,-36.621,-58.594
1621565071.815,-23.438,-17.090,-33.691,-22.461
1621565071.819,-10.254,-18.066,-28.809,-1.465
1621565071.823,-39.551,-19.043,-30.273,-25.391
1621565071.827,-60.547,-16.602,-25.391,-39.062
1621565071.831,-34.668,-10.742,-18.066,-19.043
1621565071.835,-2.441,-13.184,-18.555,10.742
1621565071.839,-16.113,-16.602,-18.066,-10.742
1621565071.843,-30.762,-11.719,-18.066,-29.785
1621565071.847,-22.949,-14.160,-20.996,-10.254
1621565071.851,-4.395,-15.137,-17.578,17.090
1621565071.855,-2.441,-12.207,-15.137,9.766
1621565071.859,-41.504,-11.719,-17.090,-27.344
1621565071.862,-46.875,-12.207,-17.090,-28.809
1621565071.866,-16.602,-14.648,-19.531,-2.441
1621565071.870,-3.906,-16.602,-20.996,-0.977
1621565071.874,-31.250,-21.484,-21.973,-28.320
1621565071.878,-60.547,-26.367,-24.414,-45.410
1621565071.882,-44.434,-24.902,-22.461,-27.832
1621565071.886,-18.066,-22.949,-24.414,-1.465
1621565071.890,-39.062,-24.902,-25.391,-33.691
1621565071.894,-64.453,-25.879,-24.414,-61.523
1621565071.898,-60.059,-25.391,-28.320,-41.504
1621565071.902,-22.461,-26.367,-29.297,-7.812
1621565071.906,-16.113,-23.438,-26.367,-22.949
1621565071.910,-45.898,-25.391,-25.391,-47.852
1621565071.914,-36.621,-26.367,-24.414,-33.691
1621565071.918,-9.766,-21.484,-25.879,-11.230
1621565071.922,-17.090,-20.020,-27.344,-18.555
1621565071.926,-53.223,-25.391,-27.832,-47.852
1621565071.930,-61.035,-27.832,-24.902,-48.828
1621565071.933,-27.344,-29.785,-23.926,-15.625
1621565071.937,0.488,-29.785,-23.438,-0.977
1621565071.941,-33.691,-24.414,-24.902,-41.504
1621565071.945,-56.641,-25.391,-29.785,-52.734
1621565071.949,-30.762,-29.297,-31.250,-21.973
1621565071.953,-9.277,-30.273,-30.762,0.977
1621565071.957,-33.203,-28.320,-24.902,-22.461
1621565071.961,-48.828,-24.902,-23.926,-37.598
1621565071.965,-37.109,-31.250,-22.461,-24.902
1621565071.969,-16.602,-29.785,-22.949,-5.371
1621565071.973,-26.855,-24.902,-27.832,-12.207
1621565071.977,-55.664,-22.949,-26.367,-25.879
1621565071.981,-56.641,-20.996,-20.020,-33.691
1621565071.985,-16.113,-21.484,-17.090,-10.254
1621565071.989,-12.207,-22.949,-23.438,-1.465
1621565071.993,-50.293,-25.391,-23.438,-29.785
1621565071.997,-48.340,-27.344,-25.879,-39.551
1621565072.001,-26.855,-24.902,-27.832,-19.531
1621565072.004,-9.277,-23.438,-25.391,5.371
1621565072.008,-42.480,-27.832,-30.273,-26.367
1621565072.012,-59.570,-27.832,-27.344,-40.039
1621565072.016,-35.645,-29.297,-24.902,-11.230
1621565072.020,-10.254,-31.250,-24.902,2.930
1621565072.024,-37.109,-29.297,-23.926,-22.949
1621565072.028,-62.012,-25.391,-23.926,-41.504
1621565072.032,-45.898,-27.832,-23.438,-31.738
1621565072.036,-21.484,-31.250,-29.297,-5.371
1621565072.040,-26.367,-30.762,-30.762,-18.066
1621565072.044,-48.828,-26.367,-27.344,-50.293
1621565072.048,-37.109,-23.438,-26.855,-47.852
1621565072.052,-5.371,-19.531,-25.391,-15.625
1621565072.056,2.930,-22.461,-24.902,-11.719
1621565072.060,-28.809,-21.973,-25.879,-43.945
1621565072.064,-39.551,-17.090,-26.367,-41.016
1621565072.068,-20.996,-19.043,-25.879,-4.883
1621565072.072,1.465,-25.391,-22.461,7.812
1621565072.075,-26.367,-24.414,-20.996,-21.973
1621565072.079,-52.734,-21.973,-25.391,-31.738
1621565072.083,-43.457,-28.809,-28.809,-19.043
1621565072.087,-7.812,-23.926,-27.344,13.672
1621565072.091,-13.184,-20.508,-25.879,-2.441
1621565072.095,-50.781,-27.344,-23.926,-34.180
1621565072.099,-42.969,-25.879,-25.879,-18.066
1621565072.103,-12.207,-21.973,-26.855,13.672
1621565072.107,-14.160,-25.879,-29.297,-3.906
1621565072.111,-50.781,-29.297,-30.762,-35.156
1621565072.115,-54.199,-25.879,-25.391,-29.785
1621565072.119,-24.414,-25.879,-25.391,-5.859
1621565072.123,-1.953,-24.414,-21.973,8.789
1621565072.127,-37.598,-19.531,-23.438,-28.809
1621565072.131,-60.547,-20.508,-27.344,-40.039
1621565072.135,-32.227,-25.879,-23.926,-4.395
1621565072.139,2.930,-24.414,-25.879,23.438
1621565072.143,-20.508,-24.902,-29.297,-6.836
1621565072.146,-49.316,-26.367,-26.855,-32.227
1621565072.150,-32.227,-27.344,-24.414,-15.625
1621565072.154,-7.324,-26.855,-26.855,4.395
1621565072.158,-23.438,-22.949,-31.250,-21.973
1621565072.162,-57.617,-23.438,-29.785,-41.992
1621565072.166,-51.270,-23.926,-22.949,-26.367
1621565072.170,-13.184,-24.902,-23.438,3.906
1621565072.174,-8.301,-25.879,-25.879,-1.953
1621565072.178,-49.316,-22.949,-25.391,-41.016
1621565072.182,-53.711,-22.461,-22.949,-41.016
1621565072.186,-22.461,-27.344,-22.461,-10.742
1621565072.190,1.953,-29.297,-23.926,-2.441
1621565072.194,-27.344,-26.855,-20.996,-33.691
1621565072.198,-60.059,-24.902,-20.996,-49.805
1621565072.202,-34.668,-26.855,-24.902,-32.715
1621565072.206,-5.371,-31.250,-30.273,-8.789
1621565072.210,-30.762,-26.855,-28.809,-26.367
1621565072.214,-50.293,-18.555,-26.367,-37.598
1621565072.217,-36.621,-17.578,-22.949,-27.832
1621565072.221,-11.719,-18.066,-19.043,-2.441
1621565072.225,-21.484,-20.020,-22.461,-13.184
1621565072.229,-44.922,-22.461,-20.996,-49.316
1621565072.233,-43.945,-21.973,-20.020,-39.062
1621565072.237,-21.484,-22.949,-24.902,-9.277
1621565072.241,-18.555,-25.391,-25.879,-11.719
1621565072.245,-44.922,-21.973,-25.879,-35.156
1621565072.249,-51.270,-18.555,-24.902,-42.969
1621565072.253,-29.297,-19.531,-25.879,-25.391
1621565072.257,-7.324,-20.020,-23.926,-11.230
1621565072.261,-38.086,-22.461,-21.973,-45.410
1621565072.265,-56.152,-26.855,-23.438,-57.129
1621565072.269,-38.574,-23.438,-20.996,-29.785
1621565072.273,5.371,-17.090,-19.043,-5.859
1621565072.277,-3.418,-15.137,-24.414,-31.250
1621565072.281,-48.340,-20.508,-27.344,-60.547
1621565072.285,-48.828,-22.949,-28.809,-49.316
1621565072.288,-0.977,-22.949,-32.227,-12.207
1621565072.292,-12.695,-26.367,-35.645,-30.273
1621565072.296,-53.223,-25.391,-35.156,-55.664
1621565072.300,-38.574,-24.414,-31.250,-46.875
1621565072.304,-3.418,-24.414,-29.785,-20.996
1621565072.308,-3.906,-24.414,-25.391,-16.602
1621565072.312,-37.109,-23.926,-22.949,-48.340
1621565072.316,-35.156,-21.973,-25.391,-40.527
1621565072.320,-19.043,-24.414,-22.949,-9.277
1621565072.324,-6.836,-30.273,-24.902,-10.742
1621565072.328,-36.133,-33.203,-21.484,-44.922
1621565072.332,-48.340,-27.344,-16.602,-45.898
1621565072.336,-23.438,-21.973,-16.602,-15.137
1621565072.340,-6.348,-20.020,-21.973,6.348
1621565072.344,-16.113,-19.043,-23.926,-15.137
1621565072.348,-49.805,-19.043,-22.461,-41.016
1621565072.352,-44.434,-21.484,-25.879,-26.367
1621565072.356,-11.230,-24.414,-29.297,-10.254
1621565072.359,-15.137,-21.484,-28.320,-26.367
1621565072.363,-36.133,-19.043,-24.414,-46.875
1621565072.367,-38.574,-22.461,-24.902,-43.457
1621565072.371,-28.809,-22.461,-24.902,-29.297
1621565072.375,-20.020,-22.461,-26.367,-18.066
1621565072.379,-37.598,-24.414,-31.738,-37.598
1621565072.383,-50.293,-25.879,-30.762,-53.711
1621565072.387,-34.180,-23.926,-29.297,-32.715
1621565072.391,-8.301,-23.926,-29.785,-11.230
1621565072.395,-35.645,-23.926,-30.273,-50.781
1621565072.399,-63.965,-22.461,-32.227,-63.477
1621565072.403,-40.527,-26.855,-33.203,-36.133
1621565072.407,-8.789,-25.879,-34.668,-11.719
1621565072.411,-23.926,-17.578,-34.180,-22.461
1621565072.415,-50.293,-16.602,-28.809,-41.504
1621565072.419,-39.551,-26.855,-31.250,-33.691
1621565072.423,-8.301,-26.855,-31.250,-5.371
1621565072.427,-3.418,-27.344,-24.902,-4.395
1621565072.430,-31.738,-30.273,-25.879,-31.250
1621565072.434,-38.574,-26.855,-28.809,-33.691
1621565072.438,-14.648,-24.902,-27.832,-5.371
1621565072.442,9.766,-24.414,-23.926,15.625
1621565072.446,-32.715,-26.367,-24.902,-20.996
1621565072.450,-55.664,-24.902,-23.438,-39.551
1621565072.454,-35.645,-20.996,-25.879,-27.344
1621565072.458,-12.695,-21.484,-30.273,-5.371
1621565072.462,-31.738,-23.926,-27.832,-29.785
1621565072.466,-58.594,-24.902,-21.973,-48.828
1621565072.470,-41.992,-23.926,-23.438,-23.438
1621565072.474,-11.719,-23.926,-25.879,8.789
1621565072.478,-21.973,-22.949,-22.949,-14.648
1621565072.482,-55.664,-22.461,-22.949,-45.898
1621565072.486,-52.734,-23.926,-24.414,-36.621
1621565072.490,-12.207,-27.344,-26.855,-10.254
1621565072.494,-4.883,-24.414,-30.273,-3.418
1621565072.498,-39.551,-18.555,-28.809,-38.574
1621565072.501,-44.434,-19.531,-28.320,-50.781
1621565072.505,-23.438,-21.484,-30.762,-24.902
1621565072.509,-9.766,-22.461,-28.320,-6.836
1621565072.513,-32.227,-22.949,-23.926,-29.297
1621565072.517,-47.363,-21.484,-20.996,-41.016
1621565072.521,-26.367,-19.043,-22.949,-16.113
1621565072.525,8.789,-17.090,-25.391,7.324
1621565072.529,-10.254,-20.996,-27.344,-23.926
1621565072.533,-43.945,-23.926,-31.738,-38.086
1621565072.537,-36.133,-20.020,-30.762,-17.578
1621565072.541,0.488,-20.020,-27.344,9.766
1621565072.545,-9.766,-23.926,-30.273,-9.277
1621565072.549,-48.340,-24.902,-32.227,-43.945
1621565072.553,-38.574,-23.438,-29.785,-36.133
1621565072.557,-5.371,-26.855,-28.320,-7.324
1621565072.561,-9.277,-26.367,-27.344,-8.789
1621565072.565,-44.922,-23.438,-28.320,-41.016
1621565072.569,-57.129,-30.762,-28.320,-40.527
1621565072.572,-34.668,-31.738,-25.391,-10.742
1621565072.576,-8.301,-26.855,-22.949,2.441
1621565072.580,-38.086,-25.879,-24.902,-34.668
1621565072.584,-56.152,-21.973,-24.414,-39.551
1621565072.588,-42.969,-21.973,-27.344,-15.625
1621565072.592,-23.438,-22.461,-34.180,-8.301
1621565072.596,-39.062,-27.344,-30.273,-31.250
1621565072.600,-58.594,-30.273,-24.414,-48.828
1621565072.604,-43.457,-27.344,-25.391,-36.133
1621565072.608,-17.090,-22.461,-26.855,-11.719
1621565072.612,-18.555,-19.043,-22.461,-15.625
1621565072.616,-49.316,-23.438,-21.973,-36.133
1621565072.620,-49.805,-24.902,-27.832,-36.133
1621565072.624,-39.062,-27.344,-31.250,-13.672
1621565072.628,-9.277,-24.902,-31.250,-3.906
1621565072.632,-10.254,-18.066,-30.273,-29.297
1621565072.636,-41.992,-17.090,-26.855,-40.039
1621565072.640,-43.457,-22.949,-31.738,-39.551
1621565072.643,-28.809,-32.227,-34.180,-17.090
1621565072.647,-22.461,-29.785,-30.273,-15.137
1621565072.651,-41.504,-25.391,-26.367,-41.504
1621565072.655,-41.504,-27.832,-27.832,-41.016
1621565072.659,-19.043,-28.320,-35.156,-22.949
1621565072.663,-0.488,-25.391,-31.250,-16.113
1621565072.667,-22.461,-27.832,-27.832,-43.457
1621565072.671,-41.992,-28.809,-31.250,-53.711
1621565072.675,-32.227,-28.809,-29.785,-18.066
1621565072.679,-12.207,-30.762,-27.344,-3.418
1621565072.683,-29.785,-28.320,-28.320,-45.410
1621565072.687,-51.758,-25.391,-24.414,-52.734
1621565072.691,-37.598,-24.902,-25.391,-41.504
1621565072.695,-3.418,-24.414,-29.785,-11.719
1621565072.699,-4.395,-22.949,-31.738,-15.137
1621565072.703,-32.715,-24.902,-32.227,-45.898
1621565072.707,-38.086,-25.879,-29.297,-43.457
1621565072.711,-11.719,-26.367,-27.832,-13.184
1621565072.714,-1.953,-26.367,-27.344,-4.395
1621565072.718,-31.250,-24.414,-27.832,-33.203
1621565072.722,-45.410,-24.414,-25.391,-44.434
1621565072.726,-27.344,-26.855,-25.391,-14.160
1621565072.730,-8.301,-25.391,-23.926,-2.930
1621565072.734,-41.016,-24.414,-24.414,-37.109
1621565072.738,-54.688,-24.414,-26.855,-41.992
1621565072.742,-28.809,-25.391,-30.762,-23.438
1621565072.746,7.324,-25.391,-30.273,-2.930
1621565072.750,-9.766,-25.879,-26.855,-24.414
1621565072.754,-34.180,-22.461,-26.855,-43.457
1621565072.758,-23.926,-27.344,-28.320,-36.133
1621565072.762,7.324,-27.832,-30.273,-1.953
1621565072.766,-0.488,-22.461,-29.785,-5.859
1621565072.770,-41.016,-29.785,-31.250,-51.758
1621565072.774,-39.551,-29.785,-31.250,-55.664
1621565072.778,-14.160,-25.391,-28.320,-24.414
1621565072.782,-12.207,-28.320,-27.344,-21.484
1621565072.785,-43.945,-25.391,-31.250,-45.410
1621565072.789,-53.223,-25.391,-32.715,-47.363
1621565072.793,-37.109,-28.809,-31.250,-21.973
1621565072.797,-26.855,-26.367,-31.738,-4.395
1621565072.801,-42.969,-25.391,-31.250,-27.344
1621565072.805,-49.316,-25.391,-30.762,-39.062
1621565072.809,-49.316,-28.809,-28.809,-37.109
1621565072.813,-28.809,-25.391,-29.297,-20.996
1621565072.817,-31.738,-22.461,-28.809,-41.992
1621565072.821,-57.617,-29.785,-27.832,-60.059
1621565072.825,-42.480,-32.715,-31.738,-46.387
1621565072.829,-1.953,-31.738,-30.762,-20.508
1621565072.833,0.488,-27.344,-26.855,-23.926
1621565072.837,-39.062,-20.020,-29.297,-52.246
1621565072.841,-37.109,-20.020,-26.855,-55.664
1621565072.845,-1.953,-29.297,-26.855,-24.414
1621565072.849,9.766,-25.391,-27.344,-8.789
1621565072.853,-28.809,-20.996,-25.879,-38.086
1621565072.856,-56.641,-22.461,-25.879,-44.434
1621565072.860,-36.133,-22.461,-23.926,-17.578
1621565072.864,-12.207,-26.367,-24.902,-4.395
1621565072.868,-42.969,-27.832,-27.832,-41.992
1621565072.872,-65.430,-24.902,-28.320,-55.176
1621565072.876,-41.504,-22.461,-26.367,-34.668
1621565072.880,-15.625,-23.438,-24.902,-8.301
1621565072.884,-22.949,-25.879,-27.344,-21.973
1621565072.888,-50.293,-30.762,-29.297,-49.805
1621565072.892,-58.105,-31.250,-34.180,-50.293
1621565072.896,-20.508,-26.855,-32.227,-16.113
1621565072.900,-4.883,-24.414,-25.391,-5.859
1621565072.904,-44.922,-26.367,-30.762,-39.062
1621565072.908,-58.105,-26.855,-35.645,-48.340
1621565072.912,-26.855,-27.344,-33.691,-19.531
1621565072.916,-16.602,-34.180,-36.133,-10.254
1621565072.920,-50.781,-39.062,-37.598,-44.922
1621565072.924,-64.453,-37.109,-35.645,-55.664
1621565072.927,-43.945,-33.203,-34.180,-41.016
1621565072.931,-14.648,-33.203,-38.574,-24.902
1621565072.935,-25.391,-37.109,-37.109,-42.480
1621565072.939,-46.875,-33.203,-37.109,-56.641
1621565072.943,-33.203,-27.344,-39.551,-44.922
1621565072.947,-9.277,-28.320,-37.109,-24.902
1621565072.951,-20.508,-27.344,-36.621,-31.738
1621565072.955,-41.504,-24.414,-35.645,-51.270
1621565072.959,-38.574,-27.832,-29.297,-43.457
1621565072.963,-8.789,-28.320,-31.250,-15.625
1621565072.967,-14.160,-28.809,-34.668,-18.555
1621565072.971,-45.410,-28.809,-35.645,-49.805
1621565072.975,-57.617,-28.809,-41.992,-57.129
1621565072.979,-34.668,-31.738,-37.598,-24.414
1621565072.983,-9.277,-30.273,-36.133,-14.648
1621565072.987,-37.598,-29.297,-38.086,-49.316
1621565072.991,-50.781,-33.203,-34.180,-49.316
1621565072.995,-34.668,-37.109,-37.109,-24.414
1621565072.998,-19.531,-42.480,-41.016,-11.719
1621565073.002,-23.438,-43.457,-36.621,-28.320
1621565073.006,-39.062,-41.016,-27.832,-43.457
1621565073.010,-31.738,-38.574,-27.832,-33.691
1621565073.014,0.000,-36.621,-31.250,0.000
1621565073.018,-16.602,-38.086,-31.250,-19.043
1621565073.022,-56.641,-41.504,-31.250,-54.199
1621565073.026,-41.504,-41.504,-28.320,-46.875
1621565073.030,-6.348,-34.668,-28.320,-13.672
1621565073.034,6.836,-39.551,-30.273,-8.789
1621565073.038,-32.715,-42.969,-30.762,-48.340
1621565073.042,-50.293,-41.504,-33.203,-47.363
1621565073.046,-23.438,-44.434,-37.109,-15.625
1621565073.050,-0.977,-41.504,-34.668,-2.930
1621565073.054,-28.809,-42.480,-33.203,-30.273
1621565073.058,-53.711,-41.016,-33.203,-50.293
1621565073.062,-35.645,-34.668,-34.180,-32.715
1621565073.066,11.230,-33.691,-33.691,-4.883
1621565073.069,-8.789,-38.086,-30.762,-31.250
1621565073.073,-44.922,-37.598,-32.227,-53.711
1621565073.077,-26.367,-34.668,-30.762,-37.109
1621565073.081,4.395,-37.598,-30.273,-12.695
1621565073.085,-4.395,-36.621,-36.621,-15.625
1621565073.089,-39.551,-36.621,-38.086,-50.293
1621565073.093,-39.551,-42.480,-35.645,-53.223
1621565073.097,-3.906,-42.480,-34.668,-20.020
1621565073.101,9.277,-40.039,-33.691,-15.137
1621565073.105,-34.180,-42.480,-36.621,-46.387
1621565073.109,-43.457,-41.992,-39.062,-51.270
1621565073.113,-6.348,-36.621,-30.762,-15.625
1621565073.117,5.371,-32.715,-27.344,2.930
1621565073.121,-22.461,-35.156,-30.273,-27.344
1621565073.125,-40.527,-34.668,-29.785,-46.875
1621565073.129,-26.367,-35.156,-27.344,-26.367
1621565073.133,6.836,-33.203,-22.461,16.113
1621565073.137,-8.789,-30.762,-22.461,-3.906
1621565073.140,-40.039,-36.133,-26.367,-35.156
1621565073.144,-36.621,-36.133,-27.832,-24.414
1621565073.148,-9.277,-33.691,-26.855,-1.953
1621565073.152,-6.348,-33.691,-26.367,-10.742
1621565073.156,-44.922,-33.203,-29.297,-45.410
1621565073.160,-59.570,-31.738,-28.809,-41.992
1621565073.164,-29.297,-36.133,-27.344,-11.719
1621565073.168,-7.812,-37.109,-25.879,-2.441
1621565073.172,-39.551,-37.598,-28.320,-39.062
1621565073.176,-60.059,-35.156,-28.809,-41.016
1621565073.180,-32.715,-30.273,-27.832,-20.508
1621565073.184,-6.836,-26.855,-25.391,-5.859
1621565073.188,-32.715,-30.273,-26.367,-24.414
1621565073.192,-52.734,-33.691,-29.785,-43.945
1621565073.196,-31.250,-28.320,-28.809,-23.926
1621565073.200,0.000,-25.391,-29.297,-6.348
1621565073.204,-13.184,-26.855,-27.344,-22.461
1621565073.208,-46.387,-31.250,-25.879,-46.875
1621565073.211,-42.480,-29.785,-25.391,-29.785
1621565073.215,-8.301,-27.344,-21.973,6.836
1621565073.219,-6.836,-28.320,-19.531,-3.906
1621565073.223,-35.156,-26.367,-20.996,-32.715
1621565073.227,-38.574,-23.438,-22.949,-29.785
1621565073.231,-13.184,-23.438,-21.973,-3.906
1621565073.235,5.371,-26.367,-19.043,5.371
1621565073.239,-32.715,-26.855,-24.414,-23.438
1621565073.243,-56.152,-27.344,-28.320,-29.297
1621565073.247,-31.250,-28.809,-30.762,-13.184
1621565073.251,-4.883,-29.785,-28.809,4.883
1621565073.255,-27.344,-30.273,-25.879,-15.625
1621565073.259,-49.805,-31.738,-27.832,-38.574
1621565073.263,-43.945,-32.715,-24.902,-28.320
1621565073.267,-14.648,-33.691,-25.879,2.441
1621565073.271,-20.020,-29.297,-25.879,-9.277
1621565073.275,-54.199,-27.832,-22.461,-48.340
1621565073.279,-52.246,-28.320,-19.531,-39.551
1621565073.282,-21.484,-22.949,-14.648,4.883
1621565073.286,-13.672,-26.367,-14.648,1.953
1621565073.290,-44.434,-25.879,-15.137,-40.527
1621565073.294,-49.316,-23.438,-17.578,-35.156
1621565073.298,-29.297,-24.902,-17.578,-13.672
1621565073.302,-22.461,-22.949,-19.043,-16.602
1621565073.306,-41.992,-27.832,-19.531,-34.668
1621565073.310,-52.734,-25.879,-16.602,-39.062
1621565073.314,-33.203,-23.926,-20.508,-25.391
1621565073.318,-7.812,-29.785,-22.949,-5.859
1621565073.322,-23.926,-27.832,-23.438,-24.414
1621565073.326,-50.293,-25.391,-24.414,-41.504
1621565073.330,-45.898,-25.879,-23.926,-31.738
1621565073.334,-14.160,-23.926,-21.484,-1.953
1621565073.338,-22.949,-22.461,-22.949,-9.277
1621565073.342,-57.129,-22.949,-23.926,-36.621
1621565073.346,-55.664,-25.391,-21.973,-31.250
1621565073.350,-21.484,-25.391,-20.508,-6.836
1621565073.353,-7.812,-22.461,-20.508,-4.395
1621565073.357,-49.316,-22.949,-19.043,-40.039
1621565073.361,-64.453,-27.832,-20.508,-45.898
1621565073.365,-37.109,-27.832,-25.391,-27.344
1621565073.369,-6.836,-20.020,-22.461,-12.695
1621565073.373,-37.598,-16.602,-23.438,-36.133
1621565073.377,-57.129,-20.508,-25.391,-45.410
1621565073.381,-39.062,-25.391,-24.414,-27.832
1621565073.385,-31.250,-25.879,-21.484,-9.766
1621565073.389,-43.945,-28.809,-19.043,-32.227
1621565073.393,-65.430,-26.855,-18.066,-55.664
1621565073.397,-68.848,-29.297,-20.508,-47.852
1621565073.401,-34.180,-29.785,-21.973,-16.113
1621565073.405,-32.715,-26.367,-19.531,-23.926
1621565073.409,-64.453,-27.832,-17.090,-46.875
1621565073.413,-55.176,-30.273,-20.508,-49.316
1621565073.417,-27.832,-29.785,-22.461,-16.602
1621565073.421,-19.043,-25.391,-21.973,1.465
1621565073.424,-41.016,-27.344,-20.020,-29.785
1621565073.428,-52.246,-33.203,-19.531,-37.598
1621565073.432,-37.598,-36.621,-23.926,-20.508
1621565073.436,-6.348,-28.809,-20.996,2.441
1621565073.440,-27.344,-23.926,-21.973,-26.367
1621565073.444,-54.199,-30.273,-29.297,-40.039
1621565073.448,-38.086,-31.250,-29.297,-37.109
1621565073.452,-6.348,-23.926,-24.902,-14.648
1621565073.456,-9.277,-20.020,-27.344,-14.648
1621565073.460,-51.270,-24.414,-29.297,-50.293
1621565073.464,-53.223,-23.438,-25.391,-41.504
1621565073.468,-17.578,-24.414,-21.484,0.488
1621565073.472,-7.324,-28.320,-18.066,-0.977
1621565073.476,-42.480,-25.879,-20.996,-38.574
1621565073.480,-46.875,-20.996,-19.531,-44.434
1621565073.484,-19.043,-26.855,-18.066,-21.484
1621565073.488,-13.672,-32.227,-20.508,-11.719
1621565073.492,-47.363,-26.367,-24.414,-45.410
1621565073.495,-46.875,-26.367,-28.320,-53.711
1621565073.499,-20.508,-27.832,-24.414,-28.809
1621565073.503,1.953,-25.879,-22.949,-4.883
1621565073.507,-24.414,-28.320,-26.367,-29.785
1621565073.511,-58.594,-31.738,-29.297,-48.828
1621565073.515,-42.969,-29.297,-29.297,-37.109
1621565073.519,-13.184,-32.227,-26.855,-17.578
1621565073.523,-26.367,-33.691,-22.949,-24.414
1621565073.527,-48.340,-35.156,-25.391,-50.293
1621565073.531,-38.574,-33.203,-28.809,-41.016
1621565073.535,-14.160,-25.391,-28.320,-12.207
1621565073.539,-8.789,-20.996,-30.762,-10.742
1621565073.543,-37.598,-19.531,-29.297,-41.504
1621565073.547,-43.945,-23.926,-23.438,-42.969
1621565073.551,-21.484,-25.879,-23.438,-17.578
1621565073.555,-1.465,-23.438,-26.367,-2.930
1621565073.559,-30.273,-25.391,-29.785,-28.809
1621565073.563,-49.805,-26.367,-29.785,-50.781
1621565073.566,-31.738,-26.367,-28.809,-38.574
1621565073.570,-0.488,-24.902,-26.855,-6.836
1621565073.574,-15.625,-24.902,-27.344,-18.555
1621565073.578,-38.574,-30.762,-28.320,-41.992
1621565073.582,-37.598,-32.227,-29.297,-36.621
1621565073.586,-15.137,-29.785,-28.320,-11.719
1621565073.590,-22.461,-31.250,-26.367,-18.555
1621565073.594,-51.758,-32.715,-26.855,-51.270
1621565073.598,-48.340,-31.738,-22.461,-49.316
1621565073.602,-20.020,-30.273,-24.902,-15.137
1621565073.606,-8.301,-31.250,-27.344,-13.672
1621565073.610,-40.527,-31.738,-23.926,-52.246
1621565073.614,-45.410,-28.809,-21.973,-52.246
1621565073.618,-22.461,-31.738,-24.414,-29.785
1621565073.622,-1.465,-30.762,-27.344,-17.090
1621565073.626,-16.602,-27.344,-21.484,-38.086
1621565073.630,-44.434,-30.273,-24.414,-52.734
1621565073.634,-28.320,-31.738,-25.879,-34.180
1621565073.637,6.836,-32.227,-20.996,-4.395
1621565073.641,1.953,-33.203,-20.508,-20.020
1621565073.645,-38.574,-29.785,-21.973,-45.410
1621565073.649,-41.504,-27.344,-26.855,-41.992
1621565073.653,-4.395,-30.762,-25.391,-16.602
1621565073.657,-5.859,-27.832,-26.367,-20.508
1621565073.661,-39.062,-25.879,-28.320,-53.223
1621565073.665,-48.828,-28.809,-24.414,-52.246
1621565073.669,-29.785,-31.738,-26.855,-22.461
1621565073.673,-10.254,-35.156,-28.320,-14.160
1621565073.677,-35.156,-33.691,-22.461,-58.105
1621565073.681,-38.086,-29.785,-18.555,-63.477
1621565073.685,-13.184,-30.273,-18.555,-37.109
1621565073.689,4.395,-30.762,-28.320,-27.344
1621565073.693,-15.137,-30.762,-32.715,-52.734
1621565073.697,-43.945,-33.691,-27.344,-70.312
1621565073.701,-24.414,-24.902,-23.926,-37.109
1621565073.705,8.301,-22.949,-22.949,-16.113
1621565073.708,-8.301,-32.227,-23.438,-35.645
1621565073.712,-39.551,-35.645,-23.438,-58.594
1621565073.716,-32.227,-39.551,-24.414,-54.688
1621565073.720,-1.465,-37.109,-27.344,-19.043
1621565073.724,-8.301,-35.156,-27.344,-33.691
1621565073.728,-34.668,-35.156,-26.367,-58.105
1621565073.732,-27.344,-32.227,-28.809,-42.480
1621565073.736,-10.742,-28.809,-29.785,-21.484
1621565073.740,5.371,-30.273,-29.785,-17.578
1621565073.744,-21.484,-30.273,-32.715,-35.645
1621565073.748,-36.621,-29.297,-28.320,-38.574
1621565073.752,-14.160,-28.320,-25.879,-21.973
1621565073.756,5.859,-28.809,-31.250,-5.859
1621565073.760,-16.602,-34.180,-31.250,-39.551
1621565073.764,-39.062,-36.133,-25.879,-55.176
1621565073.768,-28.809,-33.691,-26.855,-41.504
1621565073.772,-1.465,-32.227,-27.344,-23.926
1621565073.776,-12.695,-33.691,-24.902,-30.273
1621565073.779,-45.898,-34.180,-29.785,-59.570
1621565073.783,-39.551,-30.762,-36.621,-65.430
1621565073.787,-13.184,-29.297,-34.668,-35.645
1621565073.791,-3.418,-30.762,-28.809,-18.066
1621565073.795,-39.062,-33.203,-29.297,-49.805
1621565073.799,-48.828,-37.598,-29.785,-51.758
1621565073.803,-26.367,-38.574,-27.344,-30.273
1621565073.807,-17.578,-39.062,-24.414,-25.879
1621565073.811,-44.434,-36.621,-24.902,-52.246
1621565073.815,-63.965,-38.574,-29.785,-62.988
1621565073.819,-34.180,-41.992,-29.785,-35.156
1621565073.823,-3.906,-39.062,-27.344,-13.184
1621565073.827,-16.602,-39.551,-29.785,-41.992
1621565073.831,-37.109,-36.133,-29.297,-58.105
1621565073.835,-42.969,-33.203,-23.926,-41.504
1621565073.839,-20.020,-33.691,-25.879,-14.160
1621565073.843,-18.066,-29.297,-23.926,-24.414
1621565073.847,-29.297,-29.297,-16.113,-41.504
1621565073.850,-23.926,-30.762,-21.484,-35.156
1621565073.854,-2.441,-30.273,-23.926,-19.043
1621565073.858,2.930,-33.691,-22.949,-11.230
1621565073.862,-33.691,-34.668,-26.855,-39.062
1621565073.866,-45.898,-36.621,-31.738,-48.340
1621565073.870,-25.879,-37.598,-36.621,-25.879
1621565073.874,-8.789,-31.738,-29.297,-12.207
1621565073.878,-22.949,-25.879,-24.414,-38.086
1621565073.882,-44.434,-24.414,-27.832,-47.852
1621565073.886,-25.879,-22.949,-27.832,-37.109
1621565073.890,5.859,-25.879,-31.250,-13.184
1621565073.894,-18.555,-34.180,-29.785,-35.645
1621565073.898,-41.992,-32.715,-29.785,-58.594
1621565073.902,-39.062,-28.809,-35.156,-50.293
1621565073.906,-11.230,-30.762,-31.738,-32.715
1621565073.910,-0.488,-29.785,-25.879,-34.180
1621565073.914,-36.621,-30.273,-25.879,-58.594
1621565073.918,-45.898,-29.297,-24.902,-62.012
1621565073.921,-11.230,-27.344,-22.949,-34.180
1621565073.925,4.395,-25.879,-21.973,-21.973
1621565073.929,-24.414,-18.066,-20.508,-46.387
1621565073.933,-40.039,-22.949,-22.461,-58.105
1621565073.937,-12.207,-22.949,-25.879,-32.715
1621565073.941,20.020,-15.137,-24.414,0.000
1621565073.945,-8.301,-16.113,-27.344,-26.855
1621565073.949,-37.598,-17.090,-29.785,-57.129
1621565073.953,-30.273,-25.391,-33.691,-45.410
1621565073.957,-12.695,-28.320,-34.668,-24.414
1621565073.961,-29.297,-24.902,-31.250,-41.504
1621565073.965,-56.641,-25.879,-27.344,-56.152
1621565073.969,-56.641,-25.391,-23.926,-48.828
1621565073.973,-20.508,-27.832,-24.902,-18.066
1621565073.977,-13.672,-30.762,-29.297,-19.043
1621565073.981,-44.922,-33.691,-30.762,-50.781
1621565073.985,-49.316,-29.785,-28.320,-48.340
1621565073.989,-29.297,-25.879,-28.320,-18.066
1621565073.992,-11.719,-24.902,-28.809,-9.766
1621565073.996,-41.504,-24.414,-25.879,-42.480
1621565074.000,-55.664,-21.973,-20.508,-50.293
1621565074.004,-28.809,-25.879,-20.020,-33.203
1621565074.008,-6.348,-29.785,-21.484,-9.277
1621565074.012,-26.855,-22.461,-20.508,-30.273
1621565074.016,-48.340,-21.484,-25.391,-45.898
1621565074.020,-37.598,-20.508,-25.391,-32.227
1621565074.024,-22.949,-21.973,-26.367,-21.973
1621565074.028,-29.785,-25.391,-26.367,-34.180
1621565074.032,-50.781,-21.973,-18.555,-42.969
1621565074.036,-51.758,-22.461,-20.996,-42.969
1621565074.040,-18.066,-24.902,-26.367,-22.949
1621565074.044,-6.836,-21.973,-22.949,-16.602
1621565074.048,-36.621,-23.438,-19.531,-45.898
1621565074.052,-51.758,-27.344,-20.996,-54.688
1621565074.056,-19.531,-19.531,-21.973,-20.020
1621565074.060,4.883,-18.555,-20.996,-2.930
1621565074.063,-29.785,-23.438,-23.926,-40.527
1621565074.067,-41.016,-22.461,-22.949,-48.828
1621565074.071,-26.855,-21.973,-20.020,-26.367
1621565074.075,-7.324,-23.438,-24.414,-0.488
1621565074.079,-25.391,-27.344,-28.809,-38.086
1621565074.083,-56.152,-28.320,-32.227,-67.871
1621565074.087,-37.109,-23.926,-27.832,-40.527
1621565074.091,1.465,-21.973,-26.367,-11.230
1621565074.095,-10.254,-21.484,-29.785,-32.227
1621565074.099,-38.574,-23.438,-31.250,-56.152
1621565074.103,-35.156,-28.320,-29.785,-38.086
1621565074.107,-6.348,-25.879,-26.367,-9.277
1621565074.111,0.977,-22.461,-25.391,-7.324
1621565074.115,-39.551,-24.414,-25.391,-41.992
1621565074.119,-53.223,-26.367,-24.902,-52.734
1621565074.123,-29.785,-27.832,-28.320,-25.391
1621565074.127,-0.488,-30.273,-23.926,-8.789
1621565074.131,-17.578,-27.344,-24.414,-39.551
1621565074.134,-41.016,-28.320,-28.809,-47.363
1621565074.138,-33.691,-33.203,-29.297,-38.086
1621565074.142,-8.301,-32.227,-26.855,-19.043
1621565074.146,-17.578,-28.809,-27.832,-30.762
1621565074.150,-49.316,-28.809,-30.273,-56.152
1621565074.154,-41.504,-29.785,-31.250,-36.133
1621565074.158,-3.418,-27.832,-28.320,-0.977
1621565074.162,-10.254,-25.879,-25.879,-20.020
1621565074.166,-48.828,-27.832,-30.273,-47.852
1621565074.170,-45.410,-33.203,-31.250,-41.016
1621565074.174,-15.137,-33.203,-35.156,-22.949
1621565074.178,-11.719,-29.297,-36.133,-25.391
1621565074.182,-41.016,-29.297,-34.180,-53.223
1621565074.186,-50.781,-30.273,-40.527,-53.711
1621565074.190,-30.762,-30.762,-40.527,-26.367
1621565074.194,-8.789,-29.785,-34.668,-5.859
1621565074.198,-33.203,-29.297,-33.691,-32.227
1621565074.202,-53.711,-26.855,-32.715,-50.293
1621565074.205,-40.527,-24.902,-28.320,-34.180
1621565074.209,-17.090,-22.949,-24.902,-15.625
1621565074.213,-28.320,-25.391,-24.902,-36.133
1621565074.217,-56.641,-32.715,-28.809,-50.293
1621565074.221,-52.734,-35.156,-34.668,-43.945
1621565074.225,-16.602,-27.344,-32.227,-15.625
1621565074.229,-8.789,-26.855,-31.250,-15.625
1621565074.233,-33.691,-31.738,-29.297,-46.875
1621565074.237,-33.691,-27.344,-26.855,-47.852
1621565074.241,-16.113,-26.855,-27.832,-19.043
1621565074.245,-13.672,-22.461,-27.832,-16.602
1621565074.249,-39.062,-18.555,-28.320,-54.688
1621565074.253,-46.875,-26.855,-28.809,-49.805
1621565074.257,-29.785,-30.762,-29.297,-26.367
1621565074.261,-12.207,-29.785,-27.344,-11.719
1621565074.265,-31.250,-31.738,-27.832,-31.738
1621565074.269,-45.898,-29.297,-26.855,-41.016
1621565074.273,-37.109,-25.879,-25.879,-28.320
1621565074.276,-13.672,-27.344,-24.902,-9.277
1621565074.280,-29.297,-31.250,-28.320,-29.785
1621565074.284,-55.176,-30.762,-30.762,-54.199
1621565074.288,-50.293,-28.809,-29.785,-47.363
1621565074.292,-31.738,-30.273,-32.227,-13.184
1621565074.296,-35.645,-33.203,-35.645,-6.836
1621565074.300,-66.406,-33.203,-33.691,-39.062
1621565074.304,-62.988,-28.320,-31.250,-43.457
1621565074.308,-37.109,-26.855,-31.738,-18.066
1621565074.312,-20.508,-28.320,-31.738,-6.836
1621565074.316,-39.551,-25.391,-26.855,-35.156
1621565074.320,-55.176,-22.949,-21.973,-35.645
1621565074.324,-42.480,-25.391,-25.391,-20.508
1621565074.328,-20.508,-34.180,-32.715,-11.230
1621565074.332,-40.039,-35.645,-30.762,-31.250
1621565074.336,-67.383,-30.273,-26.367,-38.574
1621565074.340,-55.664,-23.438,-24.902,-35.156
1621565074.344,-18.555,-20.996,-22.949,-11.719
1621565074.347,-35.645,-27.832,-25.879,-25.879
1621565074.351,-62.988,-28.320,-31.250,-43.457
1621565074.355,-37.109,-26.855,-31.738,-18.066
1621565074.359,-20.508,-28.320,-31.738,-6.836
1621565074.363,-39.551,-25.391,-26.855,-35.156
1621565074.367,-55.176,-22.949,-21.973,-35.645
1621565074.371,-42.480,-25.391,-25.391,-20.508
1621565074.375,-20.508,-34.180,-32.715,-11.230
1621565074.379,-40.039,-35.645,-30.762,-31.250
1621565074.383,-67.383,-30.273,-26.367,-38.574
1621565074.387,-55.664,-23.438,-24.902,-35.156
1621565074.391,-18.555,-20.996,-22.949,-11.719
1621565074.395,-35.645,-27.832,-25.879,-25.879
1621565074.399,-60.547,-22.461,-24.902,-45.410
1621565074.403,-46.387,-24.902,-26.367,-40.527
1621565074.407,-21.484,-25.391,-25.391,-12.207
1621565074.411,-19.531,-22.949,-21.973,0.000
1621565074.415,-45.410,-25.391,-21.973,-40.039
1621565074.418,-46.387,-21.484,-20.508,-41.504
1621565074.422,-33.203,-20.508,-22.461,-15.137
1621565074.426,-14.160,-17.578,-23.926,-11.719
1621565074.430,-41.992,-17.090,-27.344,-40.039
1621565074.434,-62.012,-22.949,-29.297,-46.387
1621565074.438,-41.016,-26.855,-26.855,-29.785
1621565074.442,-20.508,-24.902,-28.809,-9.277
1621565074.446,-33.691,-27.832,-33.691,-27.832
1621565074.450,-58.105,-25.879,-33.691,-45.898
1621565074.454,-50.781,-20.508,-30.273,-26.855
1621565074.458,-16.602,-20.996,-25.879,-1.465
1621565074.462,-21.973,-24.414,-22.949,-14.648
1621565074.466,-55.664,-25.879,-24.902,-39.551
1621565074.470,-59.570,-22.461,-29.297,-44.434
1621565074.474,-30.273,-21.973,-30.762,-24.414
1621565074.478,-9.766,-21.484,-25.391,-8.301
1621565074.482,-43.945,-21.484,-23.926,-32.715
1621565074.486,-63.477,-25.391,-29.785,-47.363
1621565074.489,-38.086,-24.414,-30.273,-22.949
1621565074.493,-11.719,-21.973,-24.902,-2.930
1621565074.497,-32.227,-21.484,-25.879,-37.109
1621565074.501,-62.012,-20.996,-28.320,-61.523
1621565074.505,-51.758,-22.949,-24.902,-43.457
1621565074.509,-12.207,-20.020,-28.809,-14.648
1621565074.513,-17.578,-16.113,-32.227,-31.250
1621565074.517,-50.781,-20.996,-25.879,-54.199
1621565074.521,-45.410,-20.996,-23.926,-44.922
1621565074.525,-13.184,-18.066,-24.414,-15.137
1621565074.529,-20.508,-20.020,-25.879,-30.273
1621565074.533,-59.570,-21.484,-28.809,-59.082
1621565074.537,-54.688,-21.484,-28.320,-50.781
1621565074.541,-28.320,-24.414,-28.320,-34.180
1621565074.545,-20.996,-24.414,-28.809,-32.227
1621565074.549,-38.574,-21.973,-28.320,-45.410
1621565074.553,-58.105,-21.973,-27.832,-50.293
1621565074.557,-44.922,-17.090,-25.879,-41.504
1621565074.560,-21.973,-15.625,-26.367,-20.020
1621565074.564,-41.992,-21.484,-27.344,-35.156
1621565074.568,-59.570,-17.578,-24.414,-50.293
1621565074.572,-41.016,-14.160,-25.879,-35.645
1621565074.576,-5.371,-17.090,-25.391,-8.301
1621565074.580,-16.113,-17.578,-22.949,-31.250
1621565074.584,-42.480,-17.578,-27.344,-57.617
1621565074.588,-34.668,-18.555,-28.809,-51.758
1621565074.592,-6.836,-15.625,-28.320,-28.320
1621565074.596,-0.488,-9.277,-27.832,-25.391
1621565074.600,-27.832,-7.324,-26.855,-50.781
1621565074.604,-41.992,-11.719,-26.855,-54.688
1621565074.608,-17.578,-12.695,-25.879,-20.508
1621565074.612,6.836,-11.230,-22.949,-1.465
1621565074.616,-27.344,-16.113,-20.996,-32.227
1621565074.620,-49.316,-17.578,-22.461,-43.945
1621565074.624,-27.344,-17.090,-27.344,-21.484
1621565074.628,-8.301,-16.602,-27.344,-16.113
1621565074.631,-27.344,-13.184,-26.855,-37.109
1621565074.635,-43.457,-16.113,-29.297,-43.457
1621565074.639,-32.227,-20.020,-31.738,-32.715
1621565074.643,-7.812,-19.531,-30.762,-11.230
1621565074.647,-10.742,-15.625,-21.973,-20.020
1621565074.651,-41.504,-10.254,-20.508,-52.734
1621565074.655,-41.504,-10.742,-25.391,-47.852
1621565074.659,-12.695,-11.719,-24.902,-10.254
1621565074.663,-10.254,-9.277,-20.996,-20.508
1621565074.667,-45.898,-12.207,-22.949,-48.340
1621565074.671,-51.270,-18.066,-22.949,-40.039
1621565074.675,-24.414,-19.531,-24.414,-25.391
1621565074.679,-4.395,-15.137,-30.273,-12.695
1621565074.683,-23.926,-10.742,-27.344,-38.574
1621565074.687,-43.945,-15.137,-25.879,-49.316
1621565074.691,-27.344,-16.113,-23.926,-27.344
1621565074.695,-0.488,-12.207,-21.484,-4.395
1621565074.699,-21.484,-17.090,-24.902,-26.855
1621565074.702,-49.805,-20.508,-26.367,-52.246
1621565074.706,-47.852,-18.555,-24.902,-40.039
1621565074.710,-22.949,-15.625,-24.902,-20.996
1621565074.714,-29.785,-14.648,-26.855,-35.645
1621565074.718,-54.688,-12.695,-28.320,-53.711
1621565074.722,-50.781,-17.090,-27.832,-52.246
1621565074.726,-19.531,-19.531,-29.297,-33.691
1621565074.730,-11.230,-16.602,-23.926,-24.902
1621565074.734,-43.457,-18.066,-18.555,-52.734
1621565074.738,-50.781,-16.113,-22.461,-65.430
1621565074.742,-24.414,-13.184,-21.484,-35.156
1621565074.746,3.418,-16.602,-20.508,-16.113
1621565074.750,-28.320,-16.602,-25.879,-56.641
1621565074.754,-52.246,-16.602,-30.762,-64.941
1621565074.758,-34.180,-21.484,-30.273,-39.551
1621565074.762,-8.789,-19.531,-30.762,-25.391
1621565074.766,-21.973,-19.531,-33.691,-46.875
1621565074.770,-47.852,-22.949,-31.250,-63.477
1621565074.773,-40.527,-22.949,-26.855,-39.551
1621565074.777,-5.859,-19.531,-26.855,-19.531
1621565074.781,3.418,-15.137,-25.879,-31.250
1621565074.785,-28.320,-20.020,-27.344,-50.781
1621565074.789,-39.062,-19.531,-30.273,-46.387
1621565074.793,-18.555,-19.531,-28.809,-19.043
1621565074.797,-13.672,-19.531,-26.855,-8.301
1621565074.801,-41.016,-13.672,-26.367,-30.762
1621565074.805,-48.828,-11.719,-28.809,-40.039
1621565074.809,-23.926,-14.648,-28.320,-21.484
1621565074.813,5.371,-11.230,-25.879,0.977
1621565074.817,-18.555,-8.789,-29.297,-26.855
1621565074.821,-42.969,-10.742,-33.203,-44.922
1621565074.825,-25.879,-10.254,-31.738,-27.832
1621565074.829,-4.883,-13.672,-31.738,-7.812
1621565074.833,-29.297,-16.113,-32.715,-31.738
1621565074.837,-58.105,-19.043,-30.762,-56.641
1621565074.841,-43.457,-24.902,-32.227,-50.781
1621565074.844,-23.438,-25.391,-30.762,-28.809
1621565074.848,-24.414,-23.926,-29.785,-27.832
1621565074.852,-48.340,-26.367,-32.715,-57.129
1621565074.856,-60.059,-20.996,-35.156,-62.012
1621565074.860,-31.250,-19.043,-38.086,-34.668
1621565074.864,-17.578,-21.484,-34.668,-33.691
1621565074.868,-43.945,-22.461,-24.414,-55.176
1621565074.872,-54.199,-21.484,-23.926,-55.176
1621565074.876,-38.574,-17.090,-25.391,-38.574
1621565074.880,-8.301,-13.672,-22.461,-13.184
1621565074.884,-28.809,-13.184,-23.926,-34.668
1621565074.888,-60.059,-14.160,-26.367,-57.617
1621565074.892,-49.316,-17.578,-31.250,-47.363
1621565074.896,-26.367,-18.066,-34.180,-19.043
1621565074.900,-24.414,-14.648,-31.250,-26.855
1621565074.904,-48.340,-16.113,-28.809,-52.734
1621565074.908,-50.293,-17.090,-30.273,-43.945
1621565074.912,-18.066,-22.461,-34.180,-16.602
1621565074.915,-9.766,-20.508,-28.809,-20.020
1621565074.919,-36.621,-21.973,-24.414,-38.086
1621565074.923,-44.922,-23.438,-22.949,-38.574
1621565074.927,-20.508,-15.137,-25.391,-26.855
1621565074.931,-9.766,-14.160,-26.855,-17.578
1621565074.935,-37.598,-17.090,-26.367,-37.109
1621565074.939,-50.781,-22.461,-26.367,-56.152
1621565074.943,-35.156,-27.832,-28.320,-41.016
1621565074.947,-7.812,-26.855,-28.809,-16.113
1621565074.951,-26.367,-26.367,-25.391,-43.457
1621565074.955,-53.223,-24.902,-24.414,-60.059
1621565074.959,-48.340,-23.926,-26.855,-49.805
1621565074.963,-14.160,-19.043,-26.855,-17.578
1621565074.967,-17.090,-16.602,-22.461,-25.391
1621565074.971,-49.316,-21.973,-23.438,-61.523
1621565074.975,-41.016,-23.438,-25.391,-51.270
1621565074.979,-14.648,-19.043,-21.973,-24.414
1621565074.983,-22.949,-17.090,-20.996,-36.621
1621565074.986,-59.082,-22.949,-27.832,-64.941
1621565074.990,-64.453,-27.832,-29.297,-65.918
1621565074.994,-40.039,-20.996,-23.926,-43.457
1621565074.998,-15.625,-19.043,-21.484,-20.996
1621565075.002,-56.152,-23.438,-26.367,-52.734
1621565075.006,-73.242,-20.020,-28.809,-59.082
1621565075.010,-37.109,-17.578,-25.879,-30.273
1621565075.014,-14.160,-16.602,-30.273,-20.020
1621565075.018,-41.504,-24.414,-32.227,-50.781
1621565075.022,-76.172,-26.855,-27.344,-73.242
1621565075.026,-59.082,-20.996,-28.809,-49.805
1621565075.030,-22.461,-21.973,-33.691,-14.160
1621565075.034,-22.949,-19.043,-27.832,-20.996
1621565075.038,-51.758,-18.066,-25.879,-44.434
1621565075.042,-59.082,-20.996,-31.738,-44.434
1621565075.046,-36.133,-24.902,-30.273,-17.578
1621565075.050,-20.508,-26.367,-25.879,-10.742
1621565075.054,-39.551,-24.414,-26.367,-38.574
1621565075.057,-48.340,-18.066,-26.855,-37.109
1621565075.061,-22.461,-16.113,-24.414,-7.324
1621565075.065,0.488,-13.672,-23.438,2.441
1621565075.069,-31.738,-13.672,-23.926,-33.203
1621565075.073,-50.293,-15.137,-23.926,-40.527
1621565075.077,-35.645,-12.695,-27.344,-25.391
1621565075.081,-17.090,-17.578,-27.344,-7.324
1621565075.085,-21.973,-20.020,-23.438,-17.090
1621565075.089,-47.363,-21.484,-28.809,-46.387
1621565075.093,-50.293,-19.043,-27.832,-40.527
1621565075.097,-19.043,-12.695,-21.484,-9.277
1621565075.101,-23.438,-14.160,-25.391,-13.672
1621565075.105,-46.875,-11.719,-29.297,-39.551
1621565075.109,-41.504,-11.719,-27.832,-43.457
1621565075.113,-21.484,-14.160,-25.391,-13.672
1621565075.117,-19.531,-15.137,-27.344,-18.066
1621565075.121,-49.805,-18.066,-27.344,-47.363
1621565075.125,-67.383,-20.508,-28.320,-51.270
1621565075.128,-41.992,-20.508,-32.715,-33.203
1621565075.132,-3.418,-19.531,-31.250,-13.184
1621565075.136,-27.344,-14.648,-26.367,-38.086
1621565075.140,-52.734,-12.207,-26.367,-53.223
1621565075.144,-42.480,-15.137,-29.297,-33.691
1621565075.148,-17.578,-17.090,-29.297,-13.184
1621565075.152,-23.926,-17.578,-31.738,-37.598
1621565075.156,-54.688,-19.043,-31.250,-53.223
1621565075.160,-47.852,-20.020,-26.367,-43.457
1621565075.164,-11.230,-21.973,-24.414,-12.207
1621565075.168,-4.395,-22.461,-25.879,-9.277
1621565075.172,-43.457,-22.949,-28.320,-48.828
1621565075.176,-48.340,-25.879,-28.809,-39.062
1621565075.180,-27.832,-30.762,-30.762,-11.719
1621565075.184,-12.207,-29.297,-31.738,-12.207
1621565075.188,-40.039,-25.391,-30.762,-42.969
1621565075.192,-59.570,-23.438,-30.273,-55.176
1621565075.196,-41.992,-20.996,-30.762,-38.086
1621565075.199,-18.066,-17.090,-29.785,-18.555
1621565075.203,-27.832,-17.578,-31.250,-39.551
1621565075.207,-50.781,-20.508,-31.250,-56.641
1621565075.211,-38.574,-21.484,-31.250,-44.434
1621565075.215,-6.836,-21.973,-33.691,-16.602
1621565075.219,-7.812,-22.949,-31.738,-20.508
1621565075.223,-47.363,-21.973,-31.738,-47.363
1621565075.227,-56.152,-22.949,-31.738,-38.574
1621565075.231,-23.926,-24.414,-33.203,-10.254
1621565075.235,-31.738,-25.391,-39.551,-21.484
1621565075.239,-58.105,-27.832,-39.062,-52.734
1621565075.243,-55.664,-26.367,-35.645,-56.641
1621565075.247,-36.621,-22.949,-34.180,-38.574
1621565075.251,-14.648,-23.926,-34.668,-17.090
1621565075.255,-36.621,-21.973,-36.133,-40.039
1621565075.259,-53.223,-18.555,-31.738,-50.781
1621565075.263,-40.527,-20.996,-31.250,-38.086
1621565075.266,-17.578,-19.043,-35.645,-17.090
1621565075.270,-20.996,-14.648,-30.273,-30.762
1621565075.274,-40.039,-23.926,-26.855,-44.922
1621565075.278,-43.457,-31.250,-27.344,-36.133
1621565075.282,-14.160,-24.902,-28.320,-11.230
1621565075.286,-3.906,-20.020,-24.902,-13.672
1621565075.290,-30.762,-18.555,-22.949,-36.621
1621565075.294,-25.879,-20.996,-21.973,-23.438
1621565075.298,-9.277,-26.855,-25.879,-11.230
1621565075.302,-11.719,-24.414,-32.227,-22.949
1621565075.306,-35.645,-19.043,-28.809,-42.969
1621565075.310,3.418,-16.113,-23.438,-16.602
1621565075.314,-12.695,-13.184,-19.531,-23.438
1621565075.318,-52.246,-14.160,-20.996,-49.805
1621565075.322,-35.156,-21.484,-27.832,-44.434
1621565075.326,-17.090,-27.832,-27.344,-20.020
1621565075.330,-26.855,-29.785,-28.320,-37.598
1621565075.334,-62.500,-28.320,-33.203,-66.895
1621565075.337,-55.664,-18.066,-35.645,-53.223
1621565075.341,-9.766,-17.090,-32.715,-17.578
1621565075.345,-13.184,-25.879,-30.762,-20.996
1621565075.349,-47.363,-23.438,-36.133,-53.711
1621565075.353,-52.734,-20.020,-36.621,-59.570
1621565075.357,-22.949,-21.484,-30.762,-35.156
1621565075.361,-10.742,-21.973,-32.227,-20.020
1621565075.365,-44.434,-22.949,-32.715,-47.852
1621565075.369,-55.664,-21.484,-29.297,-61.523
1621565075.373,-43.945,-21.973,-27.832,-45.898
1621565075.377,-17.578,-24.902,-24.902,-25.391
1621565075.381,-39.062,-24.902,-27.344,-47.363
1621565075.385,-65.430,-22.461,-30.273,-65.430
1621565075.389,-58.105,-22.461,-25.879,-50.293
1621565075.393,-31.250,-25.391,-26.367,-20.996
1621565075.397,-29.297,-26.367,-31.250,-40.039
1621565075.401,-55.664,-27.344,-29.785,-69.824
1621565075.405,-53.223,-24.414,-28.809,-63.965
1621565075.408,-21.973,-21.484,-32.227,-38.086
1621565075.412,-5.859,-16.113,-29.785,-26.367
1621565075.416,-24.414,-16.113,-27.832,-46.387
1621565075.420,-27.344,-17.578,-29.297,-56.152
1621565075.424,-1.465,-17.090,-31.250,-34.180
1621565075.428,12.695,-18.066,-32.715,-20.020
1621565075.432,-21.484,-19.043,-31.250,-46.875
1621565075.436,-47.852,-22.949,-29.297,-55.664
1621565075.440,-38.574,-21.973,-30.762,-32.227
1621565075.444,-3.906,-19.043,-21.973,-2.441
1621565075.448,-28.320,-20.508,-17.578,-24.414
1621565075.452,-63.477,-21.973,-22.949,-50.293
1621565075.456,-49.805,-21.973,-24.902,-41.016
1621565075.460,-20.508,-22.461,-24.902,-16.602
1621565075.464,-27.832,-27.344,-28.809,-27.832
1621565075.468,-59.570,-28.320,-27.832,-49.805
1621565075.472,-55.664,-24.902,-23.438,-43.457
1621565075.476,-6.348,-21.973,-23.926,-14.160
1621565075.479,0.000,-19.043,-24.414,-10.254
1621565075.483,-44.434,-20.020,-26.855,-44.922
1621565075.487,-52.246,-22.461,-27.344,-49.805
1621565075.491,-29.785,-23.926,-32.227,-28.809
1621565075.495,-7.812,-27.344,-37.109,-18.555
1621565075.499,-29.785,-24.414,-32.715,-35.645
1621565075.503,-43.457,-20.020,-31.738,-44.922
1621565075.507,-24.414,-25.391,-32.715,-36.133
1621565075.511,0.977,-26.855,-29.785,-7.324
1621565075.515,-14.648,-22.461,-29.297,-20.020
1621565075.519,-43.457,-22.949,-27.832,-44.434
1621565075.523,-36.621,-24.902,-26.367,-30.273
1621565075.527,-9.766,-26.855,-27.832,-7.812
1621565075.531,-15.625,-26.367,-27.832,-9.277
1621565075.535,-48.828,-22.949,-30.273,-34.180
1621565075.539,-45.410,-23.438,-29.297,-39.062
1621565075.543,-3.906,-19.531,-22.949,-5.371
1621565075.547,0.977,-19.043,-24.902,-2.441
1621565075.550,-38.574,-20.508,-25.879,-34.668
1621565075.554,-45.898,-17.578,-27.832,-44.434
1621565075.558,-13.672,-17.090,-29.785,-24.902
1621565075.562,12.695,-13.184,-26.855,-7.812
1621565075.566,-26.855,-14.648,-24.902,-41.016
1621565075.570,-46.875,-15.137,-19.531,-50.781
1621565075.574,-20.996,-15.625,-19.043,-27.344
1621565075.578,5.859,-19.043,-27.344,-11.719
1621565075.582,-13.672,-18.066,-34.180,-36.133
1621565075.586,-46.387,-20.020,-27.832,-57.617
1621565075.590,-42.969,-25.391,-23.926,-48.340
1621565075.594,-20.020,-21.484,-29.297,-16.602
1621565075.598,-14.160,-17.578,-28.320,-15.625
1621565075.602,-45.410,-23.438,-27.344,-41.504
1621565075.606,-58.105,-25.391,-25.391,-40.527
1621565075.610,-34.668,-23.438,-23.926,-17.578
1621565075.614,-16.113,-23.926,-26.367,-17.578
1621565075.618,-49.316,-23.438,-30.273,-53.223
1621565075.621,-64.453,-21.484,-26.367,-46.387
1621565075.625,-30.762,-22.461,-23.926,-17.090
1621565075.629,-7.812,-26.855,-31.738,-11.230
1621565075.633,-25.879,-26.855,-33.203,-33.691
1621565075.637,-44.922,-25.879,-26.855,-40.527
1621565075.641,-38.574,-26.855,-32.227,-37.598
1621565075.645,-7.812,-27.832,-34.180,-17.090
1621565075.649,-8.789,-24.414,-27.344,-21.973
1621565075.653,-33.691,-19.531,-24.902,-49.805
1621565075.657,-32.715,-18.066,-27.344,-43.945
1621565075.661,-10.742,-20.508,-33.691,-26.367
1621565075.665,-14.160,-21.973,-36.133,-24.902
1621565075.669,-43.457,-24.902,-34.180,-42.969
1621565075.673,-51.758,-23.438,-31.738,-45.410
1621565075.677,-25.879,-21.973,-30.273,-20.508
1621565075.681,-5.859,-21.484,-28.809,-10.254
1621565075.685,-36.621,-22.461,-31.738,-41.992
1621565075.689,-50.781,-25.391,-32.227,-56.641
1621565075.692,-31.250,-23.438,-28.809,-23.926
1621565075.696,-4.883,-21.484,-22.461,5.371
1621565075.700,-22.461,-24.414,-21.484,-20.020
1621565075.704,-54.199,-22.949,-24.414,-41.992
1621565075.708,-52.246,-26.855,-31.738,-32.715
1621565075.712,-24.414,-29.297,-34.180,-3.906
1621565075.716,-31.250,-20.996,-28.809,-21.484
1621565075.720,-58.105,-21.973,-29.297,-55.664
1621565075.724,-53.711,-22.461,-28.809,-48.340
1621565075.728,-35.645,-23.438,-30.273,-20.996
1621565075.732,-26.855,-24.414,-32.715,-24.414
1621565075.736,-56.152,-22.949,-33.691,-58.594
1621565075.740,-65.918,-25.879,-34.668,-67.383
1621565075.744,-32.715,-27.832,-34.180,-30.762
1621565075.748,-9.766,-27.832,-32.715,-1.953
1621565075.752,-43.945,-34.180,-33.691,-40.039
1621565075.756,-66.895,-30.762,-33.691,-53.223
1621565075.760,-53.711,-30.762,-33.203,-32.227
1621565075.763,-15.137,-35.645,-34.668,-2.441
1621565075.767,-28.320,-30.273,-33.203,-30.762
1621565075.771,-59.570,-29.785,-34.180,-50.781
1621565075.775,-53.223,-25.879,-31.738,-27.832
1621565075.779,-36.133,-25.391,-32.715,-9.277
1621565075.783,-37.109,-27.344,-30.762,-25.879
1621565075.787,-60.059,-29.297,-28.809,-52.734
1621565075.791,-50.781,-29.785,-32.227,-47.852
1621565075.795,-18.555,-27.344,-31.250,-21.484
1621565075.799,-9.766,-25.391,-30.762,-13.672
1621565075.803,-39.062,-23.438,-33.691,-46.875
1621565075.807,-60.059,-30.273,-34.668,-50.781
1621565075.811,-37.109,-32.227,-29.785,-15.137
1621565075.815,-14.160,-30.273,-29.785,-10.742
1621565075.819,-50.293,-32.715,-34.668,-52.734
1621565075.823,-68.848,-28.809,-32.715,-53.223
1621565075.827,-41.016,-23.438,-27.344,-32.715
1621565075.831,-14.648,-24.414,-26.855,-10.742
1621565075.834,-18.555,-24.414,-27.832,-23.926
1621565075.838,-43.457,-22.949,-27.344,-47.852
1621565075.842,-40.527,-20.996,-25.879,-43.457
1621565075.846,-13.672,-22.949,-28.809,-13.672
1621565075.850,-14.648,-28.320,-29.785,-14.160
1621565075.854,-48.828,-29.785,-33.691,-59.570
1621565075.858,-55.176,-26.855,-36.133,-63.477
1621565075.862,-20.996,-20.996,-30.273,-24.414
1621565075.866,-4.395,-21.484,-26.367,-7.324
1621565075.870,-41.992,-24.902,-28.809,-35.156
1621565075.874,-63.965,-25.879,-31.738,-53.223
1621565075.878,-44.922,-29.785,-33.691,-35.156
1621565075.882,-15.625,-29.785,-30.762,-14.648
1621565075.886,-33.203,-27.832,-28.320,-37.598
1621565075.890,-64.453,-25.879,-29.297,-52.246
1621565075.894,-53.711,-29.785,-33.203,-39.551
1621565075.898,-20.508,-31.250,-35.645,-19.043
1621565075.902,-24.902,-29.785,-34.180,-34.668
1621565075.905,-49.805,-31.250,-31.250,-54.199
1621565075.909,-51.758,-32.715,-29.785,-51.270
1621565075.913,-24.414,-29.297,-33.691,-23.438
1621565075.917,-11.719,-30.273,-36.133,-15.137
1621565075.921,-41.504,-32.715,-36.133,-48.340
1621565075.925,-48.340,-32.715,-35.645,-46.387
1621565075.929,-23.926,-35.156,-31.738,-9.766
1621565075.933,-3.906,-27.832,-28.809,-2.441
1621565075.937,-30.762,-24.902,-30.762,-36.133
1621565075.941,-53.223,-25.391,-31.738,-52.734
1621565075.945,-31.250,-21.973,-29.297,-30.762
1621565075.949,-1.953,-20.508,-28.320,-2.441
1621565075.953,-23.926,-22.949,-30.762,-39.062
1621565075.957,-43.457,-23.438,-31.250,-52.734
1621565075.961,-26.367,-21.973,-30.762,-26.367
1621565075.965,-3.906,-20.508,-32.227,-1.953
1621565075.969,-18.066,-19.531,-30.273,-23.438
1621565075.973,-45.410,-16.602,-30.273,-55.176
1621565075.976,-37.109,-14.160,-24.414,-44.434
1621565075.980,-7.324,-11.719,-20.020,-16.602
1621565075.984,-1.465,-12.207,-24.902,-13.672
1621565075.988,-38.086,-18.555,-26.367,-44.434
1621565075.992,-47.852,-18.066,-28.320,-42.480
1621565075.996,-15.625,-13.672,-28.809,-8.301
1621565076.000,17.578,-13.184,-25.391,6.348
1621565076.004,-20.996,-12.695,-22.949,-35.645
1621565076.008,-54.688,-16.113,-24.414,-50.781
1621565076.012,-23.438,-17.578,-26.855,-16.602
1621565076.016,2.930,-19.531,-26.855,6.348
1621565076.020,-21.484,-21.484,-28.320,-25.391
1621565076.024,-50.781,-17.090,-26.367,-53.711
1621565076.028,-39.551,-17.578,-25.391,-33.691
1621565076.032,-1.465,-19.531,-27.344,-5.371
1621565076.036,-6.836,-17.578,-25.879,-21.973
1621565076.040,-41.992,-24.414,-26.855,-48.340
1621565076.044,-43.945,-22.949,-29.297,-43.457
1621565076.047,-22.461,-20.996,-30.273,-28.809
1621565076.051,-8.301,-23.926,-32.715,-20.020
1621565076.055,-32.715,-19.531,-32.715,-43.945
1621565076.059,-46.875,-21.973,-33.691,-50.293
1621565076.063,-15.625,-26.367,-35.645,-22.949
1621565076.067,9.766,-23.438,-33.691,-9.766
1621565076.071,-24.902,-24.902,-31.738,-44.434
1621565076.075,-46.387,-25.879,-28.320,-52.734
1621565076.079,-30.273,-28.320,-27.344,-27.832
1621565076.083,3.906,-28.809,-27.832,-2.930
1621565076.087,-3.906,-23.438,-26.855,-17.578
1621565076.091,-35.645,-21.973,-27.832,-39.551
1621565076.095,-23.438,-22.461,-29.785,-34.180
1621565076.099,8.301,-23.438,-31.250,-9.766
1621565076.103,-5.371,-21.973,-34.180,-25.879
1621565076.107,-47.363,-23.438,-35.645,-55.176
1621565076.111,-41.992,-27.344,-29.785,-49.316
1621565076.115,-9.766,-26.367,-28.809,-20.996
1621565076.118,-4.395,-31.738,-32.715,-14.160
1621565076.122,-33.203,-26.855,-32.227,-41.992
1621565076.126,-40.039,-21.973,-30.273,-45.410
1621565076.130,-30.273,-23.926,-31.250,-17.578
1621565076.134,-13.184,-20.508,-35.156,5.859
1621565076.138,-37.598,-22.949,-34.668,-34.668
1621565076.142,-52.734,-20.996,-31.250,-54.688
1621565076.146,-30.762,-19.043,-32.227,-32.715
1621565076.150,-11.719,-22.461,-32.227,-11.230
1621565076.154,-22.461,-25.391,-32.715,-33.203
1621565076.158,-62.500,-25.391,-33.203,-59.570
1621565076.162,-55.176,-22.461,-29.785,-44.922
1621565076.166,-20.996,-20.508,-31.250,-12.207
1621565076.170,-29.785,-24.414,-37.109,-26.367
1621565076.174,-66.895,-28.809,-37.598,-62.012
1621565076.178,-64.453,-30.762,-38.086,-55.176
1621565076.182,-31.738,-26.855,-33.203,-26.855
1621565076.186,-13.672,-26.855,-30.273,-9.277
1621565076.189,-30.762,-24.902,-30.762,-32.715
1621565076.193,-47.852,-20.996,-31.250,-48.828
1621565076.197,-27.344,-18.066,-33.203,-26.855
1621565076.201,4.395,-19.531,-35.156,1.953
1621565076.205,-15.625,-21.484,-36.133,-21.973
1621565076.209,-41.992,-19.531,-34.180,-45.898
1621565076.213,-38.086,-17.578,-39.062,-41.016
1621565076.217,-4.395,-12.695,-38.574,-21.973
1621565076.221,-2.930,-13.672,-36.621,-45.410
1621565076.225,-36.621,-16.113,-37.598,-70.312
1621565076.229,-34.180,-17.578,-33.691,-56.641
1621565076.233,1.465,-19.531,-34.668,-24.902
1621565076.237,7.812,-13.184,-31.738,-20.020
1621565076.241,-37.598,-10.742,-32.715,-46.387
1621565076.245,-39.551,-17.090,-32.715,-38.574
1621565076.249,0.488,-18.555,-28.809,-5.371
1621565076.253,2.441,-21.973,-34.180,5.371
1621565076.257,-42.969,-23.926,-39.551,-31.250
1621565076.260,-62.012,-26.855,-39.551,-41.016
1621565076.264,-54.199,-26.367,-40.527,-29.297
1621565076.268,-23.438,-20.996,-37.598,-13.672
1621565076.272,-42.480,-21.484,-34.668,-41.504
1621565076.276,-74.219,-22.461,-33.691,-59.082
1621565076.280,-48.340,-19.043,-31.250,-35.645
1621565076.284,-24.902,-20.020,-30.762,-23.926
1621565076.288,-35.156,-22.461,-27.832,-30.762
1621565076.292,-54.688,-25.391,-27.832,-42.969
1621565076.296,-49.805,-26.367,-31.250,-36.621
1621565076.300,-17.090,-22.949,-28.320,-17.090
1621565076.304,-7.324,-23.438,-27.344,-13.184
1621565076.308,-36.621,-26.367,-29.297,-41.016
1621565076.312,-50.781,-26.855,-31.250,-48.340
1621565076.316,-34.180,-24.902,-33.203,-21.973
1621565076.320,-11.719,-22.461,-32.715,-8.789
1621565076.324,-41.016,-22.949,-30.762,-37.598
1621565076.328,-57.617,-23.926,-30.762,-47.852
1621565076.331,-45.410,-26.367,-31.738,-32.227
1621565076.335,-29.297,-31.250,-34.180,-15.625
1621565076.339,-35.645,-34.180,-33.203,-29.785
1621565076.343,-60.059,-28.809,-30.273,-50.781
1621565076.347,-58.594,-27.344,-32.227,-36.621
1621565076.351,-14.160,-25.879,-31.250,2.930
1621565076.355,-14.648,-20.020,-28.320,-8.789
1621565076.359,-51.270,-21.484,-25.879,-34.180
1621565076.363,-53.711,-20.508,-28.809,-32.715
1621565076.367,-23.438,-20.996,-35.156,-11.719
1621565076.371,-8.301,-21.973,-32.227,-2.930
1621565076.375,-43.945,-20.020,-34.180,-37.109
1621565076.379,-54.688,-21.484,-34.668,-44.922
1621565076.383,-28.320,-21.484,-31.738,-22.949
1621565076.387,-15.625,-23.926,-33.691,-12.207
1621565076.391,-46.387,-23.926,-34.668,-45.898
1621565076.395,-64.453,-23.926,-35.645,-67.871
1621565076.399,-38.086,-23.438,-37.598,-41.016
1621565076.402,-9.277,-24.414,-34.180,-4.883
1621565076.406,-24.414,-23.926,-30.273,-24.902
1621565076.410,-51.270,-23.438,-34.668,-51.270
1621565076.414,-50.781,-24.414,-34.668,-37.598
1621565076.418,-19.531,-29.785,-30.273,-9.766
1621565076.422,-18.066,-31.250,-28.320,-19.531
1621565076.426,-44.922,-30.762,-27.344,-47.852
1621565076.430,-48.828,-31.250,-28.809,-39.062
1621565076.434,-21.484,-29.297,-33.203,-11.719
1621565076.438,-9.277,-29.297,-33.203,-5.859
1621565076.442,-37.598,-26.367,-31.738,-38.574
1621565076.446,-48.828,-24.902,-31.738,-49.805
1621565076.450,-24.414,-22.949,-30.762,-25.391
1621565076.454,1.465,-28.809,-33.691,-6.836
1621565076.458,-28.809,-34.668,-31.250,-24.902
1621565076.462,-53.711,-25.391,-31.738,-40.527
1621565076.466,-38.574,-22.949,-32.227,-37.598
1621565076.470,-4.395,-25.879,-26.367,-14.160
1621565076.473,-6.836,-20.508,-26.367,-26.855
1621565076.477,-45.410,-20.508,-29.297,-49.316
1621565076.481,-51.758,-23.926,-29.297,-45.898
1621565076.485,-13.672,-20.996,-24.414,-20.508
1621565076.489,-1.465,-21.484,-23.926,-17.578
1621565076.493,-35.645,-20.508,-29.785,-53.711
1621565076.497,-44.922,-21.484,-28.809,-53.711
1621565076.501,-15.137,-16.602,-23.438,-21.484
1621565076.505,3.906,-19.531,-24.414,-16.113
1621565076.509,-33.203,-23.926,-28.320,-55.176
1621565076.513,-46.875,-20.508,-28.809,-53.711
1621565076.517,-23.438,-20.020,-27.832,-26.855
1621565076.521,-1.465,-22.949,-26.855,-8.301
1621565076.525,-23.438,-24.902,-28.809,-31.738
1621565076.529,-54.688,-20.020,-32.227,-49.805
1621565076.533,-48.828,-20.508,-36.133,-37.598
1621565076.537,-16.602,-26.367,-31.738,-10.742
1621565076.541,-9.766,-22.949,-25.879,-15.137
1621565076.544,-40.039,-23.438,-26.855,-44.434
1621565076.548,-46.387,-23.926,-24.414,-39.062
1621565076.552,-17.578,-24.414,-23.926,-13.184
1621565076.556,-13.672,-31.250,-30.762,-13.184
1621565076.560,-54.199,-32.715,-31.738,-47.363
1621565076.564,-56.641,-25.879,-29.297,-45.410
1621565076.568,-32.227,-24.902,-33.203,-28.320
1621565076.572,-19.043,-26.367,-32.715,-16.113
1621565076.576,-33.203,-21.973,-27.344,-31.738
1621565076.580,-53.223,-21.973,-29.785,-50.781
1621565076.584,-48.340,-24.902,-32.227,-36.133
1621565076.588,-20.020,-26.855,-29.297,-8.301
1621565076.592,-27.832,-24.414,-28.809,-23.926
1621565076.596,-56.641,-23.438,-31.738,-44.922
1621565076.600,-45.410,-27.344,-30.273,-31.250
1621565076.604,-8.301,-28.320,-28.320,-1.465
1621565076.608,-14.648,-31.250,-30.273,-10.254
1621565076.612,-53.711,-28.809,-27.344,-38.574
1621565076.615,-55.664,-28.320,-31.250,-34.180
1621565076.619,-23.438,-32.715,-34.668,-13.184
1621565076.623,-10.254,-29.297,-30.273,-15.137
1621565076.627,-37.109,-22.949,-28.320,-43.945
1621565076.631,-55.664,-22.461,-30.762,-49.316
1621565076.635,-36.621,-23.926,-33.203,-22.949
1621565076.639,-5.859,-23.926,-32.227,-4.395
1621565076.643,-25.391,-25.879,-33.203,-37.598
1621565076.647,-51.270,-26.855,-33.691,-57.617
1621565076.651,-38.086,-23.926,-32.715,-38.574
1621565076.655,-14.648,-21.484,-33.203,-19.531
1621565076.659,-31.738,-22.949,-37.598,-44.434
1621565076.663,-56.641,-21.484,-37.109,-66.895
1621565076.667,-46.387,-18.066,-40.527,-52.246
1621565076.671,-14.160,-23.438,-41.016,-25.391
1621565076.675,-3.906,-22.949,-25.879,-10.742
1621565076.679,-39.062,-20.020,-21.484,-36.133
1621565076.683,-46.875,-19.531,-24.902,-47.363
1621565076.686,-26.367,-22.949,-27.344,-26.855
1621565076.690,-9.766,-22.461,-29.297,-25.391
1621565076.694,-30.762,-17.090,-28.809,-47.852
1621565076.698,-49.316,-19.043,-30.762,-46.387
1621565076.702,-22.461,-21.484,-30.273,-27.344
1621565076.706,5.859,-19.043,-31.738,-11.719
1621565076.710,-28.320,-22.949,-30.762,-41.992
1621565076.714,-58.105,-29.297,-34.180,-54.688
1621565076.718,-41.504,-31.738,-40.039,-40.039
1621565076.722,-20.996,-33.203,-37.598,-24.414
1621565076.726,-36.133,-32.715,-35.156,-36.133
1621565076.730,-59.570,-31.738,-33.691,-57.129
1621565076.734,-50.293,-35.156,-32.715,-48.340
1621565076.738,-20.020,-36.621,-34.180,-19.043
1621565076.742,-13.672,-31.738,-34.180,-21.973
1621565076.746,-43.945,-28.320,-34.668,-51.270
1621565076.750,-59.570,-27.832,-34.180,-57.129
1621565076.754,-33.203,-25.879,-36.133,-43.945
1621565076.757,-5.859,-24.414,-34.180,-25.879
1621565076.761,-32.715,-21.973,-29.785,-44.434
1621565076.765,-46.875,-19.531,-28.320,-54.688
1621565076.769,-27.832,-23.926,-29.785,-36.133
1621565076.773,-9.277,-27.832,-33.691,-12.695
1621565076.777,-39.551,-27.832,-34.180,-37.109
1621565076.781,-61.523,-25.879,-31.738,-52.734
1621565076.785,-44.434,-24.902,-30.273,-30.273
1621565076.789,-19.531,-20.508,-27.344,-7.324
1621565076.793,-17.578,-18.066,-24.414,-18.066
1621565076.797,-57.617,-20.996,-22.949,-43.457
1621565076.801,-65.918,-23.926,-27.832,-46.387
1621565076.805,-24.902,-26.367,-29.785,-8.301
1621565076.809,-11.719,-23.926,-25.879,-7.324
1621565076.813,-49.805,-23.438,-29.785,-43.457
1621565076.817,-63.477,-25.391,-29.297,-36.133
1621565076.821,-32.227,-27.832,-21.484,-14.160
1621565076.825,-12.207,-29.297,-24.414,5.371
1621565076.828,-30.762,-26.367,-28.320,-19.531
1621565076.832,-49.805,-23.926,-28.320,-42.969
1621565076.836,-44.434,-25.391,-28.320,-33.203
1621565076.840,-22.949,-26.855,-27.832,-1.465
1621565076.844,-37.109,-28.320,-28.809,-17.090
1621565076.848,-65.430,-27.832,-29.297,-45.410
1621565076.852,-47.363,-24.414,-26.367,-29.785
1621565076.856,-13.672,-26.367,-26.855,4.883
1621565076.860,-20.020,-22.461,-23.926,-1.953
1621565076.864,-56.641,-18.066,-19.043,-40.527
1621565076.868,-51.270,-20.508,-23.438,-36.133
1621565076.872,-14.160,-21.973,-31.250,-9.277
1621565076.876,-10.254,-18.555,-26.855,-20.508
1621565076.880,-42.969,-15.625,-24.414,-44.434
1621565076.884,-57.617,-19.531,-34.180,-40.039
1621565076.888,-33.691,-24.414,-32.227,-24.414
1621565076.892,0.488,-20.996,-25.391,-3.906
1621565076.896,-25.879,-21.973,-29.297,-28.320
1621565076.899,-59.570,-25.391,-33.691,-48.340
1621565076.903,-45.898,-31.250,-36.133,-28.809
1621565076.907,-18.555,-29.785,-28.809,1.465
1621565076.911,-21.484,-25.879,-23.438,-18.555
1621565076.915,-45.410,-26.855,-27.832,-45.410
1621565076.919,-46.875,-25.391,-27.344,-30.762
1621565076.923,-11.230,-26.855,-20.996,0.488
1621565076.927,-2.930,-27.344,-21.973,-5.371
1621565076.931,-37.109,-27.344,-26.855,-40.039
1621565076.935,-52.734,-26.855,-27.344,-47.852
1621565076.939,-25.391,-23.926,-24.902,-12.695
1621565076.943,-14.160,-24.414,-27.344,-2.441
1621565076.947,-46.875,-28.320,-30.762,-41.504
1621565076.951,-51.270,-27.344,-31.738,-39.551
1621565076.955,-25.391,-27.832,-28.809,-16.113
1621565076.959,-5.371,-27.832,-23.926,-0.488
1621565076.963,-38.086,-28.320,-24.414,-31.738
1621565076.967,-55.176,-29.785,-23.438,-55.176
1621565076.970,-38.574,-25.391,-22.461,-43.945
1621565076.974,-29.297,-23.926,-27.344,-16.602
1621565076.978,-41.016,-27.344,-26.855,-31.250
1621565076.982,-67.871,-29.297,-25.391,-64.453
1621565076.986,-54.199,-27.832,-30.762,-54.199
1621565076.990,-12.207,-25.391,-28.809,-21.484
1621565076.994,-10.254,-20.020,-24.414,-28.320
1621565076.998,-40.039,-17.090,-29.785,-61.035
1621565077.002,-32.227,-15.137,-28.320,-58.594
1621565077.006,-1.465,-20.996,-28.320,-34.668
1621565077.010,9.766,-22.949,-29.785,-19.531
1621565077.014,-21.973,-23.926,-28.320,-48.340
1621565077.018,-50.293,-25.391,-30.762,-59.082
1621565077.022,-27.344,-23.438,-27.344,-21.973
1621565077.026,-0.977,-24.414,-28.809,-6.348
1621565077.030,-21.973,-24.414,-32.227,-34.668
1621565077.034,-46.387,-27.832,-29.297,-49.316
1621565077.038,-32.715,-29.297,-27.832,-41.016
1621565077.041,0.000,-25.391,-25.879,-13.672
1621565077.045,-10.742,-21.973,-27.832,-25.391
1621565077.049,-43.945,-23.926,-31.738,-43.945
1621565077.053,-43.945,-24.414,-30.273,-42.480
1621565077.057,-17.578,-24.414,-31.738,-22.461
1621565077.061,-4.395,-26.855,-35.645,-15.625
1621565077.065,-42.969,-28.320,-33.203,-42.969
1621565077.069,-65.430,-24.414,-33.691,-62.012
1621565077.073,-38.086,-27.344,-35.156,-46.875
1621565077.077,-11.719,-30.762,-29.785,-18.555
1621565077.081,-34.180,-26.855,-29.785,-39.062
1621565077.085,-50.781,-24.902,-34.668,-57.129
1621565077.089,-30.273,-23.438,-29.785,-35.645
1621565077.093,-0.977,-20.996,-29.297,-10.742
1621565077.097,-10.742,-18.555,-26.855,-32.227
1621565077.101,-38.574,-15.625,-26.855,-47.363
1621565077.105,-35.645,-13.672,-30.273,-37.598
1621565077.109,-6.836,-16.113,-25.879,-20.996
1621565077.112,-26.367,-23.926,-26.367,-39.551
1621565077.116,-60.547,-21.973,-30.273,-65.430
1621565077.120,-54.688,-21.484,-33.691,-58.594
1621565077.124,-31.250,-28.320,-34.180,-34.180
1621565077.128,-16.113,-30.762,-34.180,-28.809
1621565077.132,-40.039,-27.344,-33.203,-52.734
1621565077.136,-44.434,-21.973,-29.785,-57.129
1621565077.140,-20.508,-19.043,-30.273,-36.133
1621565077.144,-1.465,-17.090,-28.320,-5.859
1621565077.148,-19.043,-16.113,-26.855,-30.273
1621565077.152,-45.898,-20.996,-27.344,-48.340
1621565077.156,-42.969,-21.973,-28.809,-32.227
1621565077.160,-9.766,-18.555,-27.344,-6.836
1621565077.164,-29.297,-20.020,-23.438,-22.949
1621565077.168,-52.734,-25.879,-24.414,-50.781
1621565077.172,-46.387,-23.926,-28.320,-41.992
1621565077.176,-19.531,-22.949,-31.738,-16.113
1621565077.180,-21.973,-25.879,-30.762,-28.809
1621565077.183,-62.500,-23.926,-28.320,-63.965
1621565077.187,-71.289,-26.855,-28.809,-63.965
1621565077.191,-32.227,-29.785,-25.879,-29.785
1621565077.195,-9.766,-23.926,-25.391,-22.949
1621565077.199,-33.691,-20.996,-22.949,-51.758
1621565077.203,-48.340,-24.902,-28.320,-54.688
1621565077.207,-21.973,-24.414,-30.273,-27.832
1621565077.211,0.488,-20.996,-26.855,-10.742
1621565077.215,-30.273,-24.902,-31.738,-44.434
1621565077.219,-44.434,-25.391,-33.203,-54.688
1621565077.223,-26.855,-24.902,-34.180,-44.434
1621565077.227,-5.371,-23.438,-32.227,-24.414
1621565077.231,-17.578,-18.066,-25.391,-29.297
1621565077.235,-51.270,-24.902,-27.344,-60.059
1621565077.239,-44.922,-24.902,-24.414,-56.641
1621565077.243,-12.695,-17.090,-24.414,-27.344
1621565077.247,-14.160,-17.578,-31.738,-32.715
1621565077.251,-50.781,-21.484,-30.273,-65.430
1621565077.254,-47.363,-21.973,-25.879,-58.594
1621565077.258,-24.414,-17.090,-26.855,-22.949
1621565077.262,-10.254,-16.602,-31.738,-16.113
1621565077.266,-30.762,-19.043,-30.762,-52.734
1621565077.270,-48.340,-23.438,-31.250,-56.152
1621565077.274,-31.738,-26.855,-34.180,-33.203
1621565077.278,-11.230,-24.414,-35.156,-12.207
1621565077.282,-37.598,-23.926,-37.109,-38.574
1621565077.286,-71.777,-27.344,-39.551,-61.035
1621565077.290,-57.617,-27.344,-39.062,-47.852
1621565077.294,-24.414,-28.320,-34.180,-20.996
1621565077.298,-41.016,-26.367,-28.320,-24.902
1621565077.302,-66.406,-21.484,-29.297,-47.852
1621565077.306,-48.340,-23.926,-28.809,-35.645
1621565077.310,-14.648,-28.320,-27.832,-6.348
1621565077.314,-11.719,-28.809,-31.250,-6.348
1621565077.318,-35.645,-26.855,-29.297,-36.133
1621565077.322,-46.387,-30.762,-29.785,-43.457
1621565077.325,-33.203,-27.344,-30.762,-29.785
1621565077.329,-11.719,-20.508,-32.227,-6.836
1621565077.333,-23.926,-21.484,-29.785,-20.508
1621565077.337,-44.922,-24.902,-27.344,-48.340
1621565077.341,-40.039,-24.414,-29.785,-42.969
1621565077.345,-14.648,-28.320,-25.391,-8.789
1621565077.349,-38.574,-32.715,-27.832,-42.969
1621565077.353,-56.152,-29.297,-30.762,-67.871
1621565077.357,-42.969,-29.785,-29.785,-37.109
1621565077.361,-29.785,-29.785,-33.203,-17.578
1621565077.365,-31.250,-29.297,-32.227,-33.203
1621565077.369,-48.828,-33.691,-33.203,-51.758
1621565077.373,-53.711,-33.691,-33.203,-45.898
1621565077.377,-30.273,-37.598,-35.645,-20.996
1621565077.381,-20.020,-41.016,-38.086,-21.484
1621565077.385,-57.617,-35.156,-42.969,-54.688
1621565077.389,-62.988,-39.551,-42.969,-60.547
1621565077.393,-41.016,-40.039,-37.109,-38.574
1621565077.396,-26.367,-37.598,-40.039,-22.461
1621565077.400,-50.781,-37.109,-39.062,-49.805
1621565077.404,-68.848,-36.133,-35.156,-62.988
1621565077.408,-51.270,-37.598,-37.598,-49.805
1621565077.412,-17.090,-37.598,-40.527,-21.484
1621565077.416,-17.578,-32.715,-39.062,-31.250
1621565077.420,-50.781,-29.785,-39.062,-56.641
1621565077.424,-54.199,-33.203,-43.457,-50.781
1621565077.428,-18.066,-33.203,-41.504,-16.113
1621565077.432,-14.648,-32.715,-41.016,-13.672
1621565077.436,-44.922,-30.273,-42.480,-39.062
1621565077.440,-45.898,-29.785,-41.016,-39.062
1621565077.444,-13.672,-34.180,-36.133,-16.113
1621565077.448,-1.465,-34.668,-36.621,-8.301
1621565077.452,-41.504,-33.691,-41.504,-39.062
1621565077.456,-56.641,-36.133,-42.480,-51.270
1621565077.460,-33.691,-40.039,-40.527,-30.273
1621565077.464,-19.531,-37.598,-38.574,-14.160
1621565077.467,-38.574,-32.715,-36.621,-38.086
1621565077.471,-42.969,-31.738,-39.062,-49.805
1621565077.475,-25.879,-27.344,-36.621,-37.598
1621565077.479,5.371,-30.762,-35.156,-6.348
1621565077.483,-5.371,-34.180,-38.574,-15.625
1621565077.487,-45.898,-34.180,-40.039,-44.922
1621565077.491,-51.758,-42.480,-39.551,-45.898
1621565077.495,-21.973,-42.480,-41.992,-22.949
1621565077.499,-12.207,-41.016,-41.016,-27.832
1621565077.503,-48.828,-45.410,-43.457,-65.430
1621565077.507,-55.176,-42.480,-46.387,-64.941
1621565077.511,-25.391,-43.457,-43.945,-31.250
1621565077.515,1.465,-40.527,-40.527,-9.277
1621565077.519,-26.367,-36.621,-40.039,-38.574
1621565077.523,-53.711,-40.527,-41.504,-62.988
1621565077.527,-29.785,-43.457,-41.016,-44.922
1621565077.531,-0.488,-42.969,-38.574,-22.461
1621565077.535,-31.250,-43.457,-40.527,-44.922
1621565077.538,-50.781,-43.457,-41.016,-64.453
1621565077.542,-33.691,-43.945,-37.109,-41.992
1621565077.546,-9.766,-44.922,-36.133,-5.859
1621565077.550,-18.066,-48.340,-36.133,-19.531
1621565077.554,-35.645,-41.992,-33.691,-20.508
1621565077.558,-30.762,-35.645,-31.250,-14.160
1621565077.562,-3.418,-35.156,-31.250,-9.277
1621565077.566,-3.418,-35.156,-29.297,-16.602
1621565077.570,-41.992,-36.133,-24.414,-44.434
1621565077.574,-46.387,-41.016,-23.926,-41.992
1621565077.578,-19.043,-40.527,-27.832,-25.391
1621565077.582,-2.441,-34.668,-27.832,-10.742
1621565077.586,-28.809,-35.645,-24.414,-35.156
1621565077.590,-48.828,-39.551,-23.438,-45.898
1621565077.594,-37.109,-39.551,-26.367,-23.926
1621565077.598,-15.137,-37.598,-30.762,-6.836
1621565077.602,-24.414,-35.156,-26.855,-18.555
1621565077.606,-43.945,-36.621,-21.973,-35.156
1621565077.609,-32.715,-35.645,-23.438,-22.461
1621565077.613,-0.977,-34.668,-23.926,2.930
1621565077.617,-2.930,-33.203,-20.508,-9.277
1621565077.621,-31.250,-34.180,-22.461,-32.715
1621565077.625,-28.320,-35.156,-23.926,-22.461
1621565077.629,5.371,-30.762,-22.461,6.348
1621565077.633,15.137,-32.227,-19.531,1.953
1621565077.637,-20.508,-33.691,-20.996,-32.227
1621565077.641,-35.156,-36.133,-25.879,-41.504
1621565077.645,-27.832,-35.156,-26.367,-26.855
1621565077.649,-5.859,-30.273,-23.926,-12.207
1621565077.653,-16.113,-30.762,-20.996,-31.250
1621565077.657,-33.203,-33.203,-20.996,-36.621
1621565077.661,-22.949,-33.691,-22.461,-22.461
1621565077.665,6.348,-30.762,-20.996,-5.859
1621565077.669,-12.207,-29.785,-21.484,-25.879
1621565077.673,-45.410,-34.668,-17.090,-41.504
1621565077.677,-41.504,-38.086,-21.484,-35.645
1621565077.680,-9.766,-36.133,-23.926,-8.789
1621565077.684,-14.160,-34.180,-24.414,-20.508
1621565077.688,-48.828,-38.574,-25.879,-51.758
1621565077.692,-43.457,-38.574,-26.367,-41.504
1621565077.696,-14.160,-36.133,-26.855,-15.625
1621565077.700,1.465,-32.715,-21.973,-2.441
1621565077.704,-40.527,-30.762,-27.344,-31.250
1621565077.708,-52.734,-33.691,-28.809,-45.898
1621565077.712,-19.043,-31.250,-26.855,-12.695
1621565077.716,-2.441,-28.809,-26.855,9.277
1621565077.720,-40.039,-31.738,-25.391,-34.180
1621565077.724,-63.965,-37.109,-33.691,-54.199
1621565077.728,-41.504,-37.109,-32.715,-34.180
1621565077.732,-14.648,-31.738,-27.344,-0.488
1621565077.736,-29.785,-39.062,-28.809,-18.555
1621565077.740,-58.105,-36.133,-24.414,-46.875
1621565077.744,-51.758,-30.762,-22.949,-26.855
1621565077.748,-22.949,-32.227,-21.973,-0.488
1621565077.751,-23.438,-31.738,-16.113,-7.812
1621565077.755,-54.199,-28.809,-19.531,-33.691
1621565077.759,-53.223,-26.367,-20.020,-34.668
1621565077.763,-27.832,-27.344,-17.090,-20.020
1621565077.767,-15.625,-27.344,-22.461,-9.766
1621565077.771,-48.828,-25.391,-26.855,-35.156
1621565077.775,-57.129,-22.461,-24.414,-42.480
1621565077.779,-23.438,-27.344,-18.555,-12.207
1621565077.783,-1.953,-27.832,-18.066,-6.836
1621565077.787,-19.531,-25.391,-20.996,-36.133
1621565077.791,-30.762,-26.367,-21.484,-48.828
1621565077.795,-16.113,-28.320,-19.043,-34.668
1621565077.799,8.301,-23.926,-20.020,-6.836
1621565077.803,3.418,-20.020,-22.461,-25.391
1621565077.807,-30.273,-22.461,-24.414,-58.594
1621565077.811,-39.062,-22.461,-24.902,-43.457
1621565077.815,-10.742,-26.855,-25.879,-9.766
1621565077.819,-10.742,-27.832,-28.809,-5.859
1621565077.822,-49.805,-27.832,-28.809,-35.156
1621565077.826,-61.523,-30.762,-27.344,-28.320
1621565077.830,-36.133,-28.320,-22.461,-3.906
1621565077.834,-9.277,-26.855,-17.578,-9.766
1621565077.838,-42.969,-30.273,-20.020,-37.109
1621565077.842,-61.035,-30.762,-22.461,-39.551
1621565077.846,-32.715,-24.414,-22.949,-12.207
1621565077.850,-12.207,-25.879,-26.367,8.789
1621565077.854,-24.902,-29.785,-22.461,-13.672
1621565077.858,-42.969,-25.391,-19.531,-24.902
1621565077.862,-28.809,-20.020,-23.926,-8.301
1621565077.866,4.883,-20.508,-22.461,17.090
1621565077.870,-6.836,-19.043,-17.090,-1.953
1621565077.874,-41.504,-16.602,-18.066,-32.227
1621565077.878,-46.875,-22.461,-22.949,-25.391
1621565077.882,-16.113,-23.926,-23.926,0.488
1621565077.886,-5.371,-21.973,-28.809,0.488
1621565077.890,-46.875,-26.367,-31.250,-36.133
1621565077.893,-60.547,-28.809,-26.367,-37.598
1621565077.897,-34.180,-28.809,-25.391,-18.555
1621565077.901,-7.324,-27.344,-23.438,-9.277
1621565077.905,-33.203,-28.809,-22.461,-33.691
1621565077.909,-53.223,-25.391,-23.926,-51.270
1621565077.913,-27.344,-22.461,-25.879,-22.949
1621565077.917,-4.395,-21.973,-25.391,11.230
1621565077.921,-16.113,-17.578,-22.949,-11.719
1621565077.925,-40.527,-22.461,-26.855,-41.504
1621565077.929,-41.504,-28.809,-27.344,-37.598
1621565077.933,-16.113,-28.809,-25.879,-4.395
1621565077.937,-16.602,-28.320,-25.879,-10.254
1621565077.941,-46.387,-32.715,-26.367,-39.551
1621565077.945,-56.152,-33.691,-28.809,-37.598
1621565077.949,-31.738,-31.250,-27.832,-16.602
1621565077.953,-11.719,-34.180,-23.926,-19.531
1621565077.957,-41.992,-30.762,-23.926,-41.016
1621565077.961,-42.969,-24.902,-22.949,-32.715
1621565077.964,-19.043,-25.391,-21.973,-14.160
1621565077.968,0.000,-27.344,-22.461,0.488
1621565077.972,-23.926,-22.949,-23.926,-30.762
1621565077.976,-55.176,-24.414,-22.949,-54.199
1621565077.980,-35.156,-21.973,-20.020,-26.367
1621565077.984,-2.930,-20.020,-20.020,2.930
1621565077.988,-21.973,-26.367,-23.926,-23.926
1621565077.992,-54.199,-30.273,-26.855,-49.805
1621565077.996,-41.992,-31.250,-23.438,-35.156
1621565078.000,-10.742,-30.762,-21.973,-10.742
1621565078.004,-4.395,-32.227,-23.926,-19.531
1621565078.008,-32.715,-29.785,-22.461,-48.828
1621565078.012,-35.645,-27.832,-21.973,-44.922
1621565078.016,-0.488,-30.762,-21.484,-12.695
1621565078.020,12.207,-28.320,-20.508,-6.836
1621565078.024,-20.996,-24.902,-23.926,-46.875
1621565078.028,-38.086,-28.809,-27.344,-53.711
1621565078.032,-17.578,-26.855,-30.762,-26.367
1621565078.035,1.465,-26.855,-28.320,-12.207
1621565078.039,-32.715,-34.668,-27.832,-46.387
1621565078.043,-53.223,-30.273,-27.344,-69.824
1621565078.047,-31.738,-24.902,-23.926,-54.199
1621565078.051,0.000,-30.762,-23.438,-24.902
1621565078.055,-8.301,-34.180,-27.832,-34.668
1621565078.059,-39.551,-33.203,-28.809,-55.664
1621565078.063,-34.180,-34.180,-24.414,-48.828
1621565078.067,-3.418,-31.738,-26.855,-15.625
1621565078.071,0.977,-32.227,-32.715,-20.508
1621565078.075,-24.902,-35.156,-30.762,-48.828
1621565078.079,-24.414,-32.227,-26.367,-40.527
1621565078.083,-9.766,-30.762,-18.555,-21.973
1621565078.087,-10.254,-34.668,-20.508,-25.391
1621565078.091,-38.086,-34.668,-29.785,-53.711
1621565078.095,-62.500,-39.551,-30.762,-65.430
1621565078.099,-46.387,-40.527,-30.273,-45.410
1621565078.103,-15.137,-35.156,-30.273,-10.254
1621565078.106,-23.926,-35.156,-29.785,-28.809
1621565078.110,-41.992,-31.250,-32.227,-49.316
1621565078.114,-35.156,-32.715,-29.297,-36.133
1621565078.118,-9.277,-36.621,-24.414,-6.348
1621565078.122,-10.254,-31.738,-20.996,-18.066
1621565078.126,-43.945,-29.785,-24.902,-54.199
1621565078.130,-52.246,-28.320,-27.344,-48.340
1621565078.134,-20.996,-28.320,-25.879,-19.043
1621565078.138,-5.371,-34.180,-26.367,-8.789
1621565078.142,-27.832,-29.297,-31.738,-38.574
1621565078.146,-41.504,-29.297,-32.715,-44.922
1621565078.150,-22.461,-37.598,-27.832,-19.043
1621565078.154,-1.953,-37.109,-24.902,-6.348
1621565078.158,-27.344,-40.039,-28.809,-30.273
1621565078.162,-48.340,-41.504,-30.762,-44.922
1621565078.166,-31.738,-40.527,-26.367,-31.250
1621565078.170,-10.742,-42.969,-28.320,-7.812
1621565078.174,-33.691,-43.457,-29.297,-26.855
1621565078.177,-62.500,-41.016,-28.809,-55.176
1621565078.181,-62.988,-39.062,-31.738,-52.734
1621565078.185,-33.203,-39.062,-29.785,-26.367
1621565078.189,-26.367,-37.598,-25.391,-29.297
1621565078.193,-53.223,-35.645,-29.785,-46.387
1621565078.197,-45.410,-39.062,-28.809,-37.109
1621565078.201,-18.555,-39.551,-24.902,-6.836
1621565078.205,-13.184,-39.551,-25.391,-8.301
1621565078.209,-39.062,-36.621,-25.391,-48.340
1621565078.213,-55.664,-36.133,-26.367,-54.688
1621565078.217,-36.133,-36.621,-23.926,-22.461
1621565078.221,-15.137,-35.645,-22.461,-10.254
1621565078.225,-45.898,-37.598,-23.438,-47.363
1621565078.229,-64.941,-39.062,-26.367,-64.941
1621565078.233,-41.016,-38.086,-26.367,-48.340
1621565078.237,-16.113,-40.039,-29.297,-17.090
1621565078.241,-39.062,-36.133,-30.762,-41.016
1621565078.245,-54.688,-37.109,-25.879,-58.594
1621565078.248,-43.457,-36.621,-23.926,-41.016
1621565078.252,-18.066,-35.156,-25.879,-12.695
1621565078.256,-12.695,-38.574,-27.832,-18.066
1621565078.260,-53.223,-38.086,-26.855,-42.480
1621565078.264,-59.082,-36.133,-24.902,-54.688
1621565078.268,-29.297,-36.133,-26.855,-34.180
1621565078.272,-19.043,-36.621,-25.391,-12.207
1621565078.276,-45.898,-33.203,-22.949,-43.945
1621565078.280,-48.828,-33.691,-24.414,-56.641
1621565078.284,-26.367,-38.086,-23.926,-33.691
1621565078.288,-10.254,-37.598,-23.438,-13.672
1621565078.292,-40.527,-35.645,-23.926,-41.504
1621565078.296,-50.293,-36.621,-24.902,-59.082
1621565078.300,-34.180,-32.227,-23.438,-37.598
1621565078.304,-8.789,-31.738,-24.902,-8.301
1621565078.308,-19.043,-31.738,-26.855,-30.273
1621565078.312,-57.129,-31.250,-21.484,-58.105
1621565078.316,-58.105,-35.156,-19.531,-55.176
1621565078.319,-32.715,-40.527,-24.414,-30.762
1621565078.323,-27.832,-43.945,-25.879,-25.879
1621565078.327,-57.129,-35.645,-25.879,-50.293
1621565078.331,-62.012,-29.297,-25.391,-49.805
1621565078.335,-37.598,-33.203,-19.043,-24.902
1621565078.339,-22.949,-32.715,-19.531,-20.508
1621565078.343,-46.387,-27.832,-21.484,-48.340
1621565078.347,-54.688,-38.574,-12.695,-50.293
1621565078.351,-29.785,-42.480,-13.672,-26.855
1621565078.355,-6.348,-29.297,-20.996,-11.719
1621565078.359,-31.250,-22.461,-22.461,-39.551
1621565078.363,-57.129,-23.438,-22.949,-53.223
1621565078.367,-42.969,-28.320,-27.832,-42.480
1621565078.371,-20.508,-28.809,-30.273,-24.902
1621565078.375,-26.855,-21.484,-23.926,-29.297
1621565078.379,-41.504,-18.555,-20.508,-41.016
1621565078.383,-35.156,-24.414,-24.414,-32.227
1621565078.387,-24.902,-28.320,-23.926,-19.531
1621565078.390,-21.484,-23.926,-23.438,-20.020
1621565078.394,-43.457,-23.926,-25.879,-49.805
1621565078.398,-65.918,-28.809,-23.926,-66.406
1621565078.402,-42.480,-26.367,-22.949,-42.969
1621565078.406,-11.230,-22.461,-20.996,-21.973
1621565078.410,-33.203,-27.344,-20.508,-44.434
1621565078.414,-56.152,-31.738,-20.996,-49.805
1621565078.418,-38.086,-34.668,-22.461,-29.297
1621565078.422,-3.906,-28.809,-26.367,-8.789
1621565078.426,-20.020,-24.902,-26.855,-30.273
1621565078.430,-45.898,-27.344,-22.949,-50.293
1621565078.434,-35.156,-24.902,-22.461,-35.156
1621565078.438,-6.348,-27.344,-22.949,-8.789
1621565078.442,-16.113,-30.762,-23.438,-22.461
1621565078.446,-46.875,-27.832,-20.020,-46.875
1621565078.450,-45.410,-27.832,-20.020,-44.922
1621565078.454,-25.391,-29.297,-26.855,-30.762
1621565078.458,-15.625,-27.832,-27.344,-17.578
1621565078.461,-48.340,-28.320,-25.879,-39.062
1621565078.465,-49.316,-27.344,-25.879,-43.945
1621565078.469,-10.254,-26.367,-21.973,-18.066
1621565078.473,5.859,-22.949,-23.438,-10.254
1621565078.477,-21.484,-21.973,-21.484,-34.180
1621565078.481,-46.387,-22.949,-15.625,-42.480
1621565078.485,-34.180,-22.949,-19.531,-24.414
1621565078.489,-3.418,-23.926,-22.949,-0.977
1621565078.493,-20.020,-27.344,-20.020,-25.879
1621565078.497,-51.270,-29.297,-20.996,-58.594
1621565078.501,-48.340,-24.902,-22.949,-41.016
1621565078.505,-17.578,-21.973,-20.996,-11.719
1621565078.509,-10.742,-22.461,-22.461,-22.949
1621565078.513,-41.016,-27.832,-25.391,-47.363
1621565078.517,-42.969,-32.227,-22.949,-37.109
1621565078.521,-14.160,-33.691,-25.879,-15.137
1621565078.525,-3.906,-30.273,-27.344,-6.836
1621565078.529,-43.457,-24.902,-28.809,-30.273
1621565078.532,-58.105,-24.902,-31.738,-45.410
1621565078.536,-27.832,-25.879,-29.785,-22.949
1621565078.540,-12.695,-24.902,-27.832,-4.395
1621565078.544,-38.086,-21.973,-24.414,-34.180
1621565078.548,-50.293,-25.391,-23.438,-51.758
1621565078.552,-34.668,-30.762,-28.320,-37.109
1621565078.556,-11.719,-25.391,-29.297,-14.648
1621565078.560,-28.320,-26.367,-24.414,-26.855
1621565078.564,-58.105,-29.297,-22.949,-49.805
1621565078.568,-50.781,-28.320,-24.414,-42.480
1621565078.572,-19.043,-29.297,-24.902,-19.043
1621565078.576,-15.625,-27.344,-25.391,-23.438
1621565078.580,-42.969,-24.902,-21.973,-48.828
1621565078.584,-48.828,-21.484,-20.996,-44.434
1621565078.588,-34.668,-23.438,-24.902,-15.137
1621565078.592,-21.973,-24.414,-23.438,-6.348
1621565078.596,-43.945,-25.391,-24.414,-45.898
1621565078.600,-60.547,-23.926,-25.879,-62.012
1621565078.603,-37.598,-20.508,-17.578,-36.621
1621565078.607,-5.371,-20.020,-20.020,-16.113
1621565078.611,-19.531,-17.578,-22.461,-45.898
1621565078.615,-34.668,-20.508,-23.438,-59.570
1621565078.619,-22.949,-26.367,-25.391,-46.387
1621565078.623,0.000,-22.949,-27.832,-19.531
1621565078.627,-17.578,-25.391,-31.250,-20.508
1621565078.631,-54.199,-29.785,-30.762,-44.922
1621565078.635,-60.059,-27.832,-31.250,-44.434
1621565078.639,-37.598,-24.902,-27.832,-23.438
1621565078.643,-25.391,-22.461,-25.879,-19.531
1621565078.647,-51.270,-20.508,-24.414,-45.410
1621565078.651,-59.570,-20.508,-26.855,-56.641
1621565078.655,-36.133,-21.973,-28.809,-28.809
1621565078.659,-18.066,-18.066,-28.809,-15.137
1621565078.663,-30.273,-17.578,-25.391,-35.645
1621565078.667,-36.621,-17.578,-26.367,-41.504
1621565078.671,-27.344,-16.113,-26.855,-23.438
1621565078.674,3.418,-16.113,-24.902,-3.418
1621565078.678,-13.184,-18.066,-28.809,-33.203
1621565078.682,-52.246,-21.973,-26.855,-50.293
1621565078.686,-43.945,-20.508,-20.996,-40.527
1621565078.690,-15.137,-18.555,-21.973,-20.996
1621565078.694,-32.715,-21.484,-24.902,-33.203
1621565078.698,-61.035,-21.973,-26.855,-59.570
1621565078.702,-56.152,-20.020,-30.762,-50.293
1621565078.706,-25.391,-21.973,-27.832,-11.719
1621565078.710,-12.695,-20.508,-26.855,-7.324
1621565078.714,-44.434,-16.113,-30.762,-40.039
1621565078.718,-59.082,-20.020,-27.832,-51.758
1621565078.722,-35.156,-20.020,-24.902,-34.668
1621565078.726,-15.625,-17.090,-23.438,-18.066
1621565078.730,-41.504,-16.602,-27.832,-56.152
1621565078.734,-62.988,-16.113,-29.785,-71.289
1621565078.738,-40.039,-15.137,-24.902,-41.504
1621565078.742,-20.020,-19.531,-18.555,-19.531
1621565078.745,-40.039,-22.949,-17.090,-38.574
1621565078.749,-55.664,-20.508,-20.508,-51.758
1621565078.753,-43.457,-18.555,-23.926,-35.156
1621565078.757,-18.066,-19.043,-26.367,-10.254
1621565078.761,-24.414,-20.508,-24.414,-17.578
1621565078.765,-54.688,-20.996,-26.855,-48.340
1621565078.769,-57.129,-19.043,-28.809,-47.363
1621565078.773,-31.250,-20.996,-26.367,-15.625
1621565078.777,-22.461,-20.996,-24.902,-12.695
1621565078.781,-52.246,-14.160,-21.484,-48.340
1621565078.785,-53.223,-18.555,-20.020,-51.758
1621565078.789,-28.320,-19.043,-21.484,-22.949
1621565078.793,-14.648,-13.184,-19.531,-4.395
1621565078.797,-36.621,-15.137,-16.602,-27.832
1621565078.801,-52.246,-11.230,-17.578,-37.109
1621565078.805,-40.039,-14.160,-21.484,-25.879
1621565078.809,-8.301,-16.602,-21.484,0.488
1621565078.813,-19.531,-16.602,-23.438,-19.043
1621565078.816,-47.363,-17.578,-23.438,-46.387
1621565078.820,-29.297,-14.648,-22.461,-28.320
1621565078.824,-0.977,-12.695,-23.926,-7.324
1621565078.828,-11.230,-15.137,-26.367,-24.414
1621565078.832,-41.016,-13.184,-26.855,-49.805
1621565078.836,-45.898,-10.254,-21.973,-44.922
1621565078.840,-24.902,-14.160,-19.531,-18.555
1621565078.844,-16.602,-15.137,-21.973,-19.531
1621565078.848,-42.480,-13.184,-23.438,-56.641
1621565078.852,-50.781,-15.625,-20.020,-52.246
1621565078.856,-36.621,-21.973,-28.320,-33.203
1621565078.860,-9.277,-23.438,-34.180,-21.973
1621565078.864,-12.207,-16.602,-24.902,-30.273
1621565078.868,-32.715,-12.695,-23.926,-40.527
1621565078.872,-33.691,-12.695,-25.391,-41.992
1621565078.876,-7.324,-12.695,-20.996,-19.043
1621565078.880,-10.254,-13.184,-21.973,-18.066
1621565078.884,-47.363,-18.555,-26.855,-49.316
1621565078.887,-54.199,-23.438,-23.926,-56.641
1621565078.891,-28.320,-22.461,-21.484,-26.367
1621565078.895,-16.113,-20.020,-24.414,-31.250
1621565078.899,-52.246,-20.020,-22.461,-60.547
1621565078.903,-70.801,-21.973,-21.973,-60.547
1621565078.907,-46.387,-21.973,-24.902,-31.250
1621565078.911,-21.973,-21.484,-22.949,-10.742
1621565078.915,-47.852,-25.391,-21.484,-34.668
1621565078.919,-68.359,-24.902,-23.926,-47.363
1621565078.923,-43.945,-24.414,-21.973,-29.297
1621565078.927,-21.484,-23.926,-17.578,-0.977
1621565078.931,-45.898,-20.508,-20.020,-26.855
1621565078.935,-70.312,-19.531,-25.391,-57.617
1621565078.939,-52.734,-19.043,-26.855,-45.410
1621565078.943,-21.973,-20.996,-28.320,-15.625
1621565078.947,-27.832,-22.949,-26.855,-38.574
1621565078.951,-49.316,-22.461,-24.902,-62.012
1621565078.955,-48.828,-17.090,-23.926,-51.270
1621565078.958,-24.414,-15.137,-21.484,-29.297
1621565078.962,-18.066,-17.578,-23.926,-25.391
1621565078.966,-48.340,-18.555,-23.926,-47.852
1621565078.970,-55.176,-16.602,-20.508,-45.410
1621565078.974,-33.203,-15.625,-22.461,-26.367
1621565078.978,-5.371,-13.184,-22.461,-13.184
1621565078.982,-48.340,-19.043,-22.949,-49.316
1621565078.986,-73.242,-25.391,-25.879,-64.453
1621565078.990,-37.109,-20.508,-19.043,-33.203
1621565078.994,-18.555,-21.973,-15.625,-12.207
1621565078.998,-46.875,-23.438,-23.438,-43.945
1621565079.002,-69.336,-17.578,-26.367,-60.547
1621565079.006,-49.316,-15.625,-18.555,-36.621
1621565079.010,-14.648,-19.043,-18.066,-0.977
1621565079.014,-19.043,-20.508,-19.531,-14.648
1621565079.018,-53.223,-17.090,-18.066,-51.270
1621565079.022,-59.570,-16.113,-18.555,-51.758
1621565079.026,-32.227,-17.578,-21.484,-20.020
1621565079.029,-23.926,-15.137,-23.438,-8.789
1621565079.033,-50.293,-12.695,-20.508,-34.180
1621565079.037,-66.406,-14.160,-20.996,-46.875
1621565079.041,-54.688,-16.602,-20.508,-29.785
1621565079.045,-17.090,-13.184,-11.719,6.348
1621565079.049,-30.762,-13.672,-16.602,-27.832
1621565079.053,-65.918,-20.508,-26.367,-59.082
1621565079.057,-47.363,-19.531,-26.855,-31.738
1621565079.061,-17.578,-17.090,-26.855,-15.137
1621565079.065,-38.086,-20.996,-26.855,-38.086
1621565079.069,-61.035,-23.926,-25.879,-46.387
1621565079.073,-57.129,-22.461,-28.809,-45.898
1621565079.077,-25.879,-14.648,-26.367,-18.555
1621565079.081,-17.578,-8.301,-21.973,-22.461
1621565079.085,-44.922,-14.648,-21.484,-53.711
1621565079.089,-58.105,-17.578,-21.973,-46.387
1621565079.093,-28.809,-18.066,-21.973,-23.438
1621565079.097,-13.184,-19.531,-16.602,-11.230
1621565079.100,-48.340,-17.090,-20.996,-43.945
1621565079.104,-57.617,-16.113,-24.414,-52.734
1621565079.108,-39.062,-19.043,-20.508,-25.391
1621565079.112,-17.578,-20.508,-20.020,-6.836
1621565079.116,-33.203,-16.602,-18.555,-33.691
1621565079.120,-53.711,-15.137,-20.508,-47.852
1621565079.124,-42.480,-14.648,-22.461,-33.203
1621565079.128,-19.043,-11.719,-21.973,-8.301
1621565079.132,-25.391,-15.137,-23.926,-24.414
1621565079.136,-51.758,-15.137,-24.902,-52.246
1621565079.140,-51.758,-14.160,-22.461,-49.805
1621565079.144,-25.391,-15.137,-20.508,-20.020
1621565079.148,-24.414,-15.137,-20.996,-13.672
1621565079.152,-47.363,-17.090,-21.973,-37.598
1621565079.156,-52.246,-18.066,-24.902,-44.922
1621565079.160,-33.691,-19.043,-22.461,-34.180
1621565079.164,-12.695,-18.555,-22.461,-28.809
1621565079.168,-39.551,-16.602,-22.949,-50.293
1621565079.171,-66.406,-18.066,-23.438,-62.988
1621565079.175,-52.734,-19.531,-25.391,-42.480
1621565079.179,-15.625,-18.555,-24.414,-13.184
1621565079.183,-27.344,-20.020,-27.832,-46.875
1621565079.187,-55.664,-20.996,-26.855,-73.730
1621565079.191,-48.828,-16.113,-25.391,-59.082
1621565079.195,-22.949,-18.555,-27.832,-35.645
1621565079.199,-23.438,-20.508,-24.902,-41.992
1621565079.203,-51.270,-16.113,-25.879,-66.406
1621565079.207,-58.594,-12.207,-26.367,-60.547
1621565079.211,-33.691,-18.066,-26.367,-35.645
1621565079.215,-23.438,-25.391,-31.250,-32.227
1621565079.219,-49.805,-22.461,-30.273,-67.383
1621565079.223,-59.082,-12.695,-27.832,-67.383
1621565079.227,-31.738,-10.742,-24.414,-32.715
1621565079.231,-5.859,-13.184,-22.461,-20.508
1621565079.235,-36.621,-10.254,-25.391,-49.805
1621565079.239,-62.988,-11.230,-21.973,-63.965
1621565079.242,-40.527,-12.695,-21.484,-37.598
1621565079.246,-10.254,-13.184,-23.438,-7.324
1621565079.250,-30.762,-15.137,-24.414,-27.344
1621565079.254,-59.082,-15.137,-26.367,-55.664
1621565079.258,-43.945,-13.184,-20.508,-43.945
1621565079.262,-8.789,-11.719,-20.508,-12.695
1621565079.266,-18.555,-13.672,-24.414,-28.809
1621565079.270,-56.152,-10.254,-23.926,-51.270
1621565079.274,-58.105,-9.766,-23.926,-46.875
1621565079.278,-28.320,-19.043,-21.973,-31.738
1621565079.282,-22.461,-16.602,-26.855,-33.691
1621565079.286,-56.152,-17.090,-30.762,-63.965
1621565079.290,-62.500,-19.043,-30.762,-62.012
1621565079.294,-43.945,-19.043,-33.203,-38.574
1621565079.298,-25.879,-21.973,-29.785,-29.785
1621565079.302,-50.293,-19.531,-21.973,-50.293
1621565079.306,-83.008,-16.602,-24.414,-68.848
1621565079.310,-53.711,-9.277,-26.367,-40.527
1621565079.313,-14.160,-7.324,-22.949,-8.301
1621565079.317,-32.227,-9.766,-20.020,-28.320
1621565079.321,-60.059,-11.230,-26.367,-44.434
1621565079.325,-61.035,-14.648,-26.855,-42.480
1621565079.329,-28.809,-19.043,-25.879,-20.508
1621565079.333,-25.879,-18.066,-31.250,-29.297
1621565079.337,-64.453,-15.625,-25.879,-55.176
1621565079.341,-58.594,-17.578,-20.508,-45.410
1621565079.345,-22.949,-13.672,-22.949,-18.066
1621565079.349,-20.508,-10.254,-24.414,-18.066
1621565079.353,-21.973,-9.766,-23.438,-22.461
1621565079.357,-0.977,-11.719,-24.414,-3.906
1621565079.361,-33.691,-17.578,-26.367,-33.203
1621565079.365,-67.871,-20.996,-27.344,-52.246
1621565079.369,-65.430,-23.438,-27.344,-43.457
1621565079.373,-35.156,-21.484,-25.879,-15.625
1621565079.377,-34.668,-19.043,-23.438,-27.344
1621565079.381,-52.246,-17.578,-23.926,-48.828
1621565079.384,-47.363,-14.160,-21.973,-37.109
1621565079.388,-23.926,-14.160,-21.484,-10.742
1621565079.392,-16.602,-12.207,-22.461,-5.371
1621565079.396,-42.480,-9.277,-22.949,-33.203
1621565079.400,-51.270,-9.766,-22.461,-42.969
1621565079.404,-25.879,-12.207,-26.855,-12.695
1621565079.408,-13.184,-14.160,-28.320,-4.395
1621565079.412,-42.969,-14.160,-25.391,-35.645
1621565079.416,-55.664,-16.113,-20.996,-43.945
1621565079.420,-38.574,-16.113,-22.461,-25.391
1621565079.424,-17.578,-18.555,-23.438,-1.953
1621565079.428,-25.391,-17.090,-22.461,-23.438
1621565079.432,-49.805,-13.672,-21.973,-43.457
1621565079.436,-21.973,-11.719,-18.066,-32.227
1621565079.440,23.926,-5.371,-21.484,-10.742
1621565079.444,1.465,-7.812,-26.367,-22.461
1621565079.448,-34.668,-9.766,-26.367,-47.363
1621565079.452,-29.785,-12.207,-25.879,-45.410
1621565079.455,-12.695,-17.578,-24.902,-20.020
1621565079.459,-9.277,-16.602,-18.555,-10.254
1621565079.463,-44.922,-16.602,-17.578,-41.016
1621565079.467,-67.383,-20.996,-22.461,-53.711
1621565079.471,-41.016,-16.113,-25.879,-26.367
1621565079.475,-16.113,-20.020,-26.367,-6.348
1621565079.479,-40.527,-22.949,-27.344,-33.691
1621565079.483,-49.805,-18.066,-27.344,-39.551
1621565079.487,-29.785,-20.508,-27.832,-19.531
1621565079.491,-9.277,-22.949,-25.879,-10.254
1621565079.495,-31.250,-23.438,-25.391,-36.621
1621565079.499,-47.852,-21.484,-27.344,-49.316
1621565079.503,-34.668,-22.461,-24.902,-30.762
1621565079.507,-25.879,-27.344,-31.738,-13.672
1621565079.511,-32.227,-20.508,-32.715,-28.809
1621565079.515,-46.387,-18.066,-27.344,-44.922
1621565079.519,-43.945,-20.020,-26.855,-35.156
1621565079.523,-14.160,-14.160,-28.320,-15.625
1621565079.526,-11.719,-15.625,-28.809,-22.949
1621565079.530,-48.828,-20.996,-29.785,-51.758
1621565079.534,-51.270,-17.090,-32.227,-52.246
1621565079.538,-26.855,-18.555,-31.250,-30.273
1621565079.542,-12.207,-20.508,-28.809,-22.461
1621565079.546,-39.062,-21.484,-27.344,-42.969
1621565079.550,-53.223,-22.949,-23.926,-45.410
1621565079.554,-37.109,-21.484,-20.508,-27.832
1621565079.558,-10.742,-18.066,-21.973,-8.789
1621565079.562,-24.414,-20.020,-21.484,-25.879
1621565079.566,-50.781,-20.020,-22.461,-50.293
1621565079.570,-40.527,-18.555,-29.297,-52.734
1621565079.574,-16.113,-16.602,-28.320,-31.738
1621565079.578,-17.578,-17.578,-24.902,-29.785
1621565079.582,-40.527,-23.438,-29.297,-54.688
1621565079.586,-39.551,-20.508,-30.273,-50.293
1621565079.590,-15.137,-17.578,-30.762,-17.090
1621565079.594,-12.695,-19.043,-26.855,-13.672
1621565079.597,-43.945,-17.090,-29.785,-43.457
1621565079.601,-51.758,-11.230,-28.320,-46.875
1621565079.605,-38.574,-14.648,-26.855,-26.855
1621565079.609,-17.578,-18.555,-26.855,-10.254
1621565079.613,-30.762,-13.672,-24.902,-36.133
1621565079.617,-48.828,-12.695,-26.367,-58.594
1621565079.621,-44.922,-15.137,-30.762,-41.504
1621565079.625,-18.066,-16.602,-32.227,-14.648
1621565079.629,-23.438,-17.090,-31.250,-32.715
1621565079.633,-55.664,-17.090,-30.762,-54.688
1621565079.637,-44.434,-13.672,-28.320,-53.711
1621565079.641,-15.625,-16.113,-27.832,-23.438
1621565079.645,-30.273,-28.809,-29.785,-23.926
1621565079.649,-67.383,-28.320,-28.320,-56.641
1621565079.653,-65.430,-23.438,-27.344,-56.641
1621565079.657,-36.621,-24.414,-30.273,-34.180
1621565079.661,-24.414,-20.020,-31.250,-24.902
1621565079.665,-55.176,-23.438,-35.156,-60.547
1621565079.668,-64.941,-24.902,-39.062,-59.082
1621565079.672,-37.109,-22.949,-34.668,-26.367
1621565079.676,-4.883,-18.066,-29.297,-11.230
1621565079.680,-20.020,-18.066,-27.832,-30.762
1621565079.684,-56.152,-24.414,-27.832,-54.199
1621565079.688,-46.387,-23.438,-29.297,-45.410
1621565079.692,-20.020,-18.066,-29.785,-26.855
1621565079.696,-32.227,-15.137,-30.762,-42.969
1621565079.700,-59.082,-21.484,-32.715,-60.059
1621565079.704,-55.176,-17.090,-32.715,-46.875
1621565079.708,-21.973,-11.719,-30.762,-13.672
1621565079.712,-15.625,-19.043,-30.762,-14.160
1621565079.716,-46.387,-20.020,-29.785,-46.875
1621565079.720,-55.664,-21.484,-25.391,-48.340
1621565079.724,-39.062,-23.926,-28.320,-28.320
1621565079.728,-30.273,-29.785,-29.785,-20.508
1621565079.732,-54.199,-28.320,-25.391,-53.223
1621565079.736,-60.547,-25.879,-28.809,-62.500
1621565079.739,-38.086,-23.926,-29.297,-29.297
1621565079.743,-15.625,-20.996,-30.762,-6.348
1621565079.747,-33.691,-19.531,-33.691,-37.109
1621565079.751,-61.523,-19.531,-34.180,-57.129
1621565079.755,-49.316,-18.066,-31.250,-39.062
1621565079.759,-23.438,-17.578,-27.344,-14.648
1621565079.763,-32.715,-24.414,-27.344,-26.367
1621565079.767,-60.059,-29.297,-30.273,-51.758
1621565079.771,-58.105,-28.320,-28.809,-50.293
1621565079.775,-24.902,-22.949,-21.484,-23.926
1621565079.779,-14.160,-20.508,-20.996,-22.461
1621565079.783,-46.387,-20.996,-22.461,-49.316
1621565079.787,-56.641,-20.020,-26.367,-52.734
1621565079.791,-27.832,-23.438,-26.367,-32.227
1621565079.795,-7.812,-22.461,-24.902,-20.996
1621565079.799,-35.645,-20.508,-29.785,-39.551
1621565079.803,-53.711,-22.949,-30.273,-51.758
1621565079.807,-32.715,-24.414,-29.785,-33.203
1621565079.810,-13.672,-23.926,-30.762,-9.766
1621565079.814,-23.438,-21.484,-28.809,-33.203
1621565079.818,-45.898,-22.949,-29.297,-46.387
1621565079.822,-42.969,-26.855,-33.691,-32.227
1621565079.826,-17.090,-29.785,-30.273,-8.301
1621565079.830,-26.855,-26.855,-27.344,-20.508
1621565079.834,-46.875,-23.926,-30.762,-47.852
1621565079.838,-41.992,-25.879,-32.227,-41.504
1621565079.842,-23.438,-26.855,-36.133,-17.578
1621565079.846,-7.324,-20.508,-32.715,-15.137
1621565079.850,-36.133,-20.996,-26.855,-39.062
1621565079.854,-51.758,-26.367,-27.832,-51.758
1621565079.858,-27.832,-29.297,-25.879,-31.738
1621565079.862,-1.953,-27.344,-21.484,-4.883
1621565079.866,-24.414,-25.879,-23.926,-37.598
1621565079.870,-42.480,-25.391,-24.414,-54.199
1621565079.874,-36.133,-21.973,-22.949,-46.387
1621565079.878,-20.996,-19.531,-23.926,-26.367
1621565079.881,-28.809,-20.020,-22.461,-36.621
1621565079.885,-56.641,-23.926,-27.344,-55.664
1621565079.889,-53.223,-24.902,-32.715,-50.293
1621565079.893,-28.320,-20.020,-31.738,-33.203
1621565079.897,-24.902,-18.555,-32.715,-39.551
1621565079.901,-53.223,-20.996,-25.879,-53.223
1621565079.905,-54.688,-23.926,-20.996,-40.039
1621565079.909,-27.832,-24.902,-28.320,-22.949
1621565079.913,-12.207,-23.926,-26.855,-11.719
1621565079.917,-37.109,-24.414,-23.926,-32.227
1621565079.921,-60.059,-24.902,-31.250,-53.223
1621565079.925,-42.969,-22.949,-31.250,-37.598
1621565079.929,-18.066,-25.391,-32.227,-7.812
1621565079.933,-41.504,-30.762,-35.645,-40.039
1621565079.937,-70.801,-25.879,-34.668,-62.988
1621565079.941,-56.152,-20.508,-32.715,-41.992
1621565079.945,-26.367,-20.508,-36.133,-17.090
1621565079.949,-35.645,-21.484,-39.062,-23.438
1621565079.952,-52.734,-24.414,-38.574,-44.922
1621565079.956,-48.340,-28.320,-35.645,-41.992
1621565079.960,-25.879,-32.227,-32.715,-14.160
1621565079.964,-18.066,-32.227,-33.691,-14.648
1621565079.968,-59.570,-40.527,-36.621,-51.758
1621565079.972,-67.871,-40.527,-39.062,-51.270
1621565079.976,-34.668,-33.691,-33.203,-22.949
1621565079.980,-14.160,-32.715,-34.180,-19.531
1621565079.984,-46.387,-30.273,-36.621,-48.828
1621565079.988,-64.453,-29.785,-34.180,-58.105
1621565079.992,-36.621,-26.367,-37.109,-41.992
1621565079.996,-8.789,-22.461,-39.551,-20.508
1621565080.000,-23.438,-21.484,-38.574,-36.133
1621565080.004,-48.340,-21.973,-34.668,-45.898
1621565080.008,-30.762,-20.020,-34.180,-23.438
1621565080.012,-0.977,-17.090,-31.250,0.000
1621565080.016,-16.113,-16.113,-32.715,-18.066
1621565080.020,-46.387,-23.438,-36.133,-38.574
1621565080.023,-45.410,-28.320,-28.809,-30.273
1621565080.027,-15.137,-23.438,-26.367,-7.812
1621565080.031,-4.395,-20.020,-27.832,-4.395
1621565080.035,-39.062,-25.391,-33.203,-36.621
1621565080.039,-53.711,-26.367,-39.062,-53.711
1621565080.043,-37.109,-25.391,-40.039,-28.320
1621565080.047,-17.578,-25.879,-34.180,-12.695
1621565080.051,-42.969,-29.785,-33.691,-40.039
1621565080.055,-58.105,-28.809,-34.180,-42.969
1621565080.059,-34.180,-24.414,-34.668,-27.344
1621565080.063,-2.441,-29.297,-37.598,-9.766
1621565080.067,-21.973,-32.227,-37.598,-30.273
1621565080.071,-52.246,-31.250,-39.551,-56.152
1621565080.075,-40.039,-32.227,-40.527,-43.945
1621565080.079,-16.602,-29.785,-39.551,-17.578
1621565080.083,-16.602,-30.273,-38.574,-21.973
1621565080.087,-43.457,-34.180,-39.551,-43.945
1621565080.091,-45.898,-35.156,-40.527,-44.922
1621565080.094,-20.020,-32.227,-41.504,-24.902
1621565080.098,-7.812,-33.203,-40.039,-17.090
1621565080.102,-31.738,-36.133,-38.574,-43.945
1621565080.106,-50.781,-39.062,-43.457,-63.477
1621565080.110,-30.273,-40.039,-44.922,-49.805
1621565080.114,-2.441,-35.645,-41.992,-25.879
1621565080.118,-25.879,-33.203,-43.457,-51.270
1621565080.122,-39.062,-31.738,-43.457,-66.406
1621565080.126,-23.926,-28.320,-42.480,-41.016
1621565080.130,3.906,-29.785,-41.504,-6.836
1621565080.134,-11.719,-29.297,-36.621,-28.809
1621565080.138,-31.250,-24.414,-35.156,-46.875
1621565080.142,-24.902,-21.484,-41.504,-37.598
1621565080.146,4.395,-28.320,-37.109,-3.418
1621565080.150,6.836,-31.250,-36.133,-11.719
1621565080.154,-32.227,-34.180,-41.504,-46.387
1621565080.158,-47.363,-40.039,-44.922,-52.734
1621565080.162,-32.715,-38.574,-43.457,-37.109
1621565080.165,-12.695,-37.109,-41.016,-24.414
1621565080.169,-38.086,-37.598,-42.969,-46.875
1621565080.173,-58.594,-36.133,-40.039,-58.594
1621565080.177,-33.203,-32.715,-35.645,-41.016
1621565080.181,-4.395,-34.180,-33.691,-12.207
1621565080.185,-25.391,-37.598,-37.598,-33.691
1621565080.189,-39.062,-35.645,-36.133,-48.340
1621565080.193,-29.297,-33.203,-30.762,-33.203
1621565080.197,2.441,-34.668,-29.785,-9.766
1621565080.201,-0.488,-36.621,-36.133,-16.113
1621565080.205,-43.457,-35.645,-41.016,-45.898
1621565080.209,-47.363,-32.715,-39.062,-53.711
1621565080.213,-17.578,-27.832,-35.156,-24.902
1621565080.217,-14.648,-31.250,-37.598,-19.531
1621565080.221,-40.039,-35.156,-33.691,-42.480
1621565080.225,-48.340,-31.738,-27.344,-42.969
1621565080.229,-21.973,-30.762,-28.809,-18.555
1621565080.233,0.488,-33.203,-28.320,-7.324
1621565080.236,-31.738,-31.738,-24.414,-30.273
1621565080.240,-53.223,-31.250,-29.785,-40.039
1621565080.244,-32.227,-24.414,-31.250,-19.043
1621565080.248,-2.441,-22.949,-26.367,9.766
1621565080.252,-13.184,-28.320,-31.250,-13.184
1621565080.256,-34.180,-28.320,-38.086,-39.551
1621565080.260,-31.250,-29.297,-32.227,-36.133
1621565080.264,-5.859,-31.250,-30.273,-13.672
1621565080.268,-7.812,-28.320,-32.227,-23.926
1621565080.272,-33.203,-26.367,-29.297,-48.340
1621565080.276,-38.574,-29.297,-29.297,-43.945
1621565080.280,-6.348,-28.809,-28.809,-7.812
1621565080.284,-4.395,-28.320,-26.855,-6.836
1621565080.288,-50.293,-32.227,-27.344,-41.504
1621565080.292,-50.781,-36.133,-29.297,-35.156
1621565080.296,-19.043,-32.227,-30.273,-11.719
1621565080.300,-2.441,-26.855,-29.297,1.465
1621565080.304,-31.250,-31.250,-28.320,-25.391
1621565080.307,-51.270,-29.297,-27.344,-43.457
1621565080.311,-27.832,-24.414,-23.926,-17.578
1621565080.315,-2.441,-24.902,-20.020,7.324
1621565080.319,-27.344,-24.414,-18.555,-21.973
1621565080.323,-43.945,-25.391,-21.484,-45.898
1621565080.327,-32.715,-28.320,-25.391,-35.156
1621565080.331,-8.789,-32.227,-26.855,-6.348
1621565080.335,-8.789,-33.691,-29.297,-8.789
1621565080.339,-41.504,-31.250,-27.832,-37.598
1621565080.343,-43.945,-31.738,-27.832,-40.039
1621565080.347,-9.277,-30.273,-28.809,-11.230
1621565080.351,-9.766,-29.297,-28.809,-9.277
1621565080.355,-49.316,-29.297,-28.320,-37.598
1621565080.359,-54.199,-27.344,-26.855,-47.363
1621565080.363,-36.621,-28.320,-27.344,-34.668
1621565080.367,-15.137,-28.809,-26.855,-9.766
1621565080.371,-36.133,-28.320,-25.391,-36.621
1621565080.375,-53.223,-27.832,-20.996,-54.688
1621565080.378,-42.969,-35.156,-17.578,-32.715
1621565080.382,-11.719,-38.086,-20.508,0.000
1621565080.386,-19.531,-36.133,-23.926,-24.414
1621565080.390,-48.828,-34.668,-24.414,-52.246
1621565080.394,-46.387,-34.180,-27.344,-42.480
1621565080.398,-11.230,-26.855,-29.785,-18.066
1621565080.402,-1.953,-22.461,-27.344,-26.367
1621565080.406,-40.039,-23.926,-22.949,-53.711
1621565080.410,-50.293,-24.902,-25.391,-44.922
1621565080.414,-17.578,-31.250,-33.691,-21.973
1621565080.418,3.418,-31.738,-32.227,-19.531
1621565080.422,-30.273,-28.320,-25.879,-41.504
1621565080.426,-50.293,-26.855,-22.461,-48.828
1621565080.430,-25.879,-27.344,-20.996,-31.250
1621565080.434,8.301,-27.832,-24.414,-13.672
1621565080.438,-14.648,-24.902,-23.438,-35.645
1621565080.442,-41.016,-22.949,-24.414,-51.758
1621565080.446,-25.391,-21.973,-23.926,-43.457
1621565080.449,6.348,-20.508,-21.973,-10.254
1621565080.453,-5.371,-21.973,-25.391,-21.484
1621565080.457,-32.227,-19.043,-26.367,-43.945
1621565080.461,-25.391,-11.719,-22.461,-36.621
1621565080.465,-1.953,-13.184,-21.484,-11.230
1621565080.469,-1.953,-15.137,-22.461,-13.184
1621565080.473,-34.668,-17.578,-22.949,-43.945
1621565080.477,-42.969,-22.461,-21.973,-43.945
1621565080.481,-13.672,-19.043,-20.996,-14.160
1621565080.485,7.812,-18.555,-23.438,-11.230
1621565080.489,-29.297,-21.484,-25.879,-51.270
1621565080.493,-51.758,-19.531,-23.926,-57.617
1621565080.497,-25.391,-20.996,-24.902,-31.738
1621565080.501,3.418,-21.484,-23.438,-14.160
1621565080.505,-12.695,-19.043,-17.090,-34.668
1621565080.509,-36.621,-17.090,-15.137,-49.316
1621565080.513,-24.902,-16.113,-13.672,-27.344
1621565080.517,5.859,-18.555,-16.113,-2.930
1621565080.520,-14.648,-15.625,-19.531,-33.691
1621565080.524,-54.688,-12.695,-24.414,-67.871
1621565080.528,-41.016,-14.160,-23.438,-51.758
1621565080.532,-8.301,-15.625,-19.531,-15.625
1621565080.536,-8.301,-17.578,-25.391,-20.020
1621565080.540,-49.805,-21.973,-32.227,-52.734
1621565080.544,-57.129,-23.926,-28.809,-47.852
1621565080.548,-18.555,-19.531,-25.879,-13.672
1621565080.552,1.953,-20.508,-22.461,-0.488
1621565080.556,-31.250,-23.438,-24.902,-38.086
1621565080.560,-48.828,-19.531,-26.367,-43.457
1621565080.564,-34.180,-17.090,-24.902,-25.391
1621565080.568,-6.836,-13.184,-22.461,-3.906
1621565080.572,-32.227,-17.578,-22.949,-29.297
1621565080.576,-65.918,-22.949,-26.855,-50.781
1621565080.580,-47.852,-21.484,-27.832,-34.180
1621565080.584,-23.438,-23.926,-30.273,-10.742
1621565080.588,-30.762,-27.344,-26.367,-13.184
1621565080.591,-56.641,-27.344,-27.344,-34.668
1621565080.595,-49.316,-27.832,-31.250,-36.133
1621565080.599,-6.836,-25.391,-29.297,-8.789
1621565080.603,-4.395,-26.367,-31.738,-8.301
1621565080.607,-40.039,-25.391,-34.668,-44.434
1621565080.611,-41.504,-20.020,-31.250,-52.734
1621565080.615,-30.762,-20.996,-30.762,-34.668
1621565080.619,-16.602,-25.879,-25.879,-8.789
1621565080.623,-36.621,-26.367,-26.367,-30.273
1621565080.627,-65.918,-29.785,-36.621,-50.293
1621565080.631,-50.781,-26.367,-35.645,-32.715
1621565080.635,-15.625,-20.508,-27.344,-4.395
1621565080.639,-23.438,-20.996,-23.438,-18.066
1621565080.643,-50.293,-25.879,-24.414,-41.016
1621565080.647,-48.340,-28.809,-24.414,-45.898
1621565080.651,-12.695,-24.414,-23.438,-13.184
1621565080.655,-7.812,-20.020,-19.531,-3.906
1621565080.659,-46.387,-22.461,-19.531,-35.645
1621565080.662,-57.617,-23.438,-25.391,-39.062
1621565080.666,-24.902,-25.391,-29.297,-19.043
1621565080.670,-8.789,-30.762,-29.785,-18.066
1621565080.674,-49.316,-27.344,-29.297,-41.992
1621565080.678,-62.500,-23.926,-25.879,-43.945
1621565080.682,-31.250,-20.996,-23.438,-22.949
1621565080.686,-2.930,-20.508,-26.367,0.000
1621565080.690,-29.297,-20.508,-31.738,-30.273
1621565080.694,-55.664,-19.531,-33.203,-52.734
1621565080.698,-44.434,-19.043,-32.227,-35.156
1621565080.702,-10.742,-18.066,-27.832,-6.348
1621565080.706,-15.137,-17.578,-23.926,-19.043
1621565080.710,-41.992,-16.602,-18.066,-46.387
1621565080.714,-36.133,-19.531,-17.090,-38.086
1621565080.718,-9.766,-27.344,-21.973,-9.277
1621565080.722,-20.996,-26.855,-20.996,-17.578
1621565080.726,-53.223,-27.344,-20.508,-36.133
1621565080.730,-47.852,-27.832,-24.414,-30.273
1621565080.733,-40.527,-23.926,-22.461,-37.109
1621565080.737,-13.184,-23.926,-21.973,-21.484
1621565080.741,2.930,-27.344,-22.949,-7.324
1621565080.745,-25.879,-33.203,-24.414,-43.457
1621565080.749,-45.898,-31.738,-22.949,-41.016
1621565080.753,-37.109,-26.855,-21.484,-17.090
1621565080.757,-12.695,-22.949,-22.461,-9.277
1621565080.761,-34.180,-20.020,-18.555,-28.809
1621565080.765,-63.965,-22.461,-20.020,-48.828
1621565080.769,-53.223,-30.273,-23.438,-40.039
1621565080.773,-17.090,-27.344,-24.902,-11.230
1621565080.777,-20.996,-24.414,-30.273,-21.484
1621565080.781,-45.898,-23.926,-22.461,-48.828
1621565080.785,-31.738,-22.461,-15.625,-31.250
1621565080.789,0.488,-23.926,-18.066,-2.930
1621565080.793,-7.812,-23.926,-23.438,-17.578
1621565080.797,-45.898,-27.344,-24.414,-50.781
1621565080.801,-46.387,-27.832,-21.973,-51.758
1621565080.804,-21.973,-26.855,-23.926,-27.832
1621565080.808,-8.301,-27.344,-27.832,-20.020
1621565080.812,-29.297,-23.926,-28.809,-44.922
1621565080.816,-41.504,-27.344,-33.203,-50.293
1621565080.820,-23.926,-28.809,-30.762,-33.691
1621565080.824,4.395,-23.926,-24.414,-7.324
1621565080.828,-15.137,-25.391,-27.344,-29.297
1621565080.832,-40.039,-24.414,-25.879,-58.594
1621565080.836,-25.879,-20.020,-18.066,-41.016
1621565080.840,6.348,-17.090,-14.648,-10.254
1621565080.844,-11.719,-20.996,-22.461,-35.156
1621565080.848,-46.387,-25.879,-24.902,-64.453
1621565080.852,-48.828,-26.855,-22.949,-52.246
1621565080.856,-23.926,-22.461,-17.578,-26.367
1621565080.860,-7.324,-19.531,-17.090,-18.066
1621565080.864,-31.738,-25.391,-19.531,-36.621
1621565080.868,-41.504,-32.227,-19.531,-48.828
1621565080.872,-21.484,-32.715,-24.414,-32.715
1621565080.875,-0.488,-28.809,-26.367,-15.625
1621565080.879,-24.414,-28.809,-22.461,-43.945
1621565080.883,-37.598,-21.484,-20.020,-50.293
1621565080.887,-23.438,-17.090,-23.926,-34.180
1621565080.891,-4.883,-20.996,-24.414,-10.742
1621565080.895,-12.695,-24.902,-20.996,-24.414
1621565080.899,-38.574,-26.855,-22.949,-50.293
1621565080.903,-36.621,-26.855,-23.438,-45.410
1621565080.907,-2.441,-25.879,-20.508,-20.020
1621565080.911,-8.301,-22.949,-23.926,-21.973
1621565080.915,-49.316,-26.855,-26.855,-51.758
1621565080.919,-51.270,-25.879,-25.879,-51.758
1621565080.923,-19.531,-23.438,-22.461,-23.926
1621565080.927,-13.184,-24.414,-26.855,-21.484
1621565080.931,-48.828,-20.996,-29.297,-48.340
1621565080.935,-56.152,-21.973,-29.297,-48.828
1621565080.939,-26.367,-25.879,-29.297,-21.973
1621565080.943,-1.953,-26.367,-26.855,-8.301
1621565080.946,-23.926,-23.926,-26.855,-33.203
1621565080.950,-48.340,-26.367,-27.832,-52.246
1621565080.954,-41.504,-29.785,-26.855,-43.457
1621565080.958,-16.113,-28.320,-27.832,-20.996
1621565080.962,-20.996,-23.438,-29.297,-31.250
1621565080.966,-48.340,-22.461,-28.809,-49.805
1621565080.970,-47.852,-25.879,-28.320,-37.109
1621565080.974,-16.602,-24.414,-25.391,-12.695
1621565080.978,-10.254,-23.438,-24.414,-22.949
1621565080.982,-37.598,-27.344,-25.879,-44.434
1621565080.986,-53.223,-28.809,-26.367,-51.758
1621565080.990,-32.227,-28.809,-25.391,-24.902
1621565080.994,-11.230,-32.227,-25.879,-5.859
1621565080.998,-40.527,-32.227,-24.902,-32.227
1621565081.002,-64.941,-27.832,-20.020,-43.945
1621565081.006,-49.316,-22.949,-19.043,-21.973
1621565081.010,-18.066,-23.926,-20.508,0.000
1621565081.014,-40.039,-32.227,-27.832,-29.785
1621565081.017,-66.406,-28.809,-23.926,-54.199
1621565081.021,-48.828,-24.902,-17.090,-30.762
1621565081.025,-19.043,-27.344,-23.926,-3.906
1621565081.029,-33.203,-28.809,-22.949,-23.926
1621565081.033,-54.199,-29.297,-22.949,-50.293
1621565081.037,-47.363,-29.785,-24.902,-40.527
1621565081.041,-12.695,-28.320,-28.809,-18.555
1621565081.045,-1.953,-26.367,-26.855,-27.832
1621565081.049,-40.527,-25.879,-23.926,-53.711
1621565081.053,-44.922,-25.879,-29.297,-60.547
1621565081.057,-21.484,-27.832,-31.250,-41.992
1621565081.061,-4.395,-30.273,-28.809,-23.926
1621565081.065,-29.297,-28.320,-21.973,-40.527
1621565081.069,-48.828,-25.391,-20.020,-46.875
1621565081.073,-36.621,-31.250,-19.043,-24.414
1621565081.077,-22.949,-27.832,-19.531,-0.488
1621565081.081,-42.969,-23.926,-22.949,-22.461
1621565081.085,-66.895,-29.785,-23.438,-46.387
1621565081.088,-57.129,-27.832,-19.531,-39.062
1621565081.092,-25.879,-29.297,-19.531,-13.672
1621565081.096,-35.156,-32.227,-26.855,-32.715
1621565081.100,-75.684,-32.715,-31.250,-68.848
1621565081.104,-77.148,-32.715,-31.738,-60.059
1621565081.108,-41.992,-35.156,-32.715,-23.438
1621565081.112,-25.879,-42.969,-33.691,-22.461
1621565081.116,-46.387,-41.016,-31.738,-53.223
1621565081.120,-59.570,-37.109,-33.203,-55.664
1621565081.124,-37.598,-34.180,-35.645,-35.156
1621565081.128,-19.531,-31.738,-37.598,-12.207
1621565081.132,-48.828,-29.297,-34.668,-35.645
1621565081.136,-57.129,-25.879,-28.809,-49.805
1621565081.140,-34.180,-24.902,-24.902,-35.156
1621565081.144,-14.648,-28.809,-21.484,-15.625
1621565081.148,-31.738,-27.344,-19.043,-28.809
1621565081.152,-59.082,-22.461,-20.996,-47.363
1621565081.156,-51.270,-22.461,-26.855,-46.387
1621565081.159,-18.555,-25.879,-25.879,-22.949
1621565081.163,-17.578,-25.391,-25.879,-21.484
1621565081.167,-45.898,-23.438,-27.832,-44.922
1621565081.171,-45.410,-27.344,-24.414,-41.504
1621565081.175,-32.715,-29.297,-24.414,-23.438
1621565081.179,-23.926,-26.855,-30.762,-26.855
1621565081.183,-49.316,-24.414,-30.273,-51.270
1621565081.187,-56.152,-20.020,-26.367,-53.711
1621565081.191,-30.762,-19.043,-27.344,-27.344
1621565081.195,-6.836,-21.484,-27.832,-8.301
1621565081.199,-36.133,-21.484,-27.344,-43.945
1621565081.203,-57.129,-21.484,-28.809,-50.293
1621565081.207,-33.203,-21.973,-31.250,-27.344
1621565081.211,-16.113,-21.973,-26.367,-13.184
1621565081.215,-38.574,-19.531,-24.902,-32.715
1621565081.219,-59.082,-18.555,-30.762,-52.246
1621565081.223,-47.852,-25.879,-31.738,-44.922
1621565081.227,-25.879,-27.344,-27.344,-20.020
1621565081.230,-22.461,-21.973,-24.902,-19.531
1621565081.234,-37.598,-21.973,-26.367,-40.527
1621565081.238,-42.969,-18.066,-30.273,-41.504
1621565081.242,-23.926,-20.508,-29.785,-22.461
1621565081.246,-13.672,-22.949,-28.809,-16.602
1621565081.250,-47.852,-23.438,-29.785,-51.270
1621565081.254,-53.711,-24.902,-26.855,-53.223
1621565081.258,-28.809,-24.414,-28.320,-35.156
1621565081.262,-11.230,-22.461,-30.273,-22.949
1621565081.266,-27.832,-22.949,-27.832,-42.969
1621565081.270,-51.270,-24.414,-28.320,-52.246
1621565081.274,-38.086,-18.066,-29.785,-37.109
1621565081.278,-4.395,-16.602,-30.273,-13.184
1621565081.282,-8.789,-20.508,-25.391,-27.832
1621565081.286,-37.598,-20.020,-20.996,-56.152
1621565081.290,-41.504,-17.090,-28.320,-49.316
1621565081.294,-12.695,-22.461,-30.273,-24.414
1621565081.298,-7.324,-27.832,-27.344,-25.391
1621565081.301,-36.133,-27.344,-27.344,-53.223
1621565081.305,-41.992,-25.391,-27.344,-55.176
1621565081.309,-24.414,-24.902,-24.414,-35.156
1621565081.313,-5.859,-24.414,-26.855,-17.090
1621565081.317,-33.691,-21.484,-30.273,-43.457
1621565081.321,-56.641,-20.996,-26.367,-59.570
1621565081.325,-43.945,-25.879,-25.391,-40.527
1621565081.329,-12.207,-23.926,-25.879,-14.648
1621565081.333,-37.598,-24.902,-24.902,-33.203
1621565081.337,-67.383,-26.367,-26.855,-52.246
1621565081.341,-46.875,-24.902,-27.832,-39.551
1621565081.345,-20.508,-28.809,-28.809,-13.184
1621565081.349,-34.180,-26.855,-31.738,-21.973
1621565081.353,-63.965,-23.438,-29.785,-52.246
1621565081.357,-59.082,-26.367,-32.227,-44.922
1621565081.361,-35.156,-24.414,-29.785,-22.461
1621565081.365,-26.367,-23.438,-22.461,-23.926
1621565081.369,-54.199,-28.809,-21.484,-48.340
1621565081.372,-66.895,-32.227,-21.973,-61.523
1621565081.376,-43.457,-34.668,-23.438,-36.621
1621565081.380,-19.531,-31.738,-26.855,-13.672
1621565081.384,-32.227,-24.902,-26.855,-42.969
1621565081.388,-44.922,-21.973,-25.391,-58.594
1621565081.392,-44.922,-23.438,-30.762,-39.062
1621565081.396,-27.832,-23.438,-33.203,-11.719
1621565081.400,-28.320,-29.297,-31.738,-31.738
1621565081.404,-52.246,-30.273,-33.203,-49.316
1621565081.408,-48.828,-27.344,-29.785,-34.180
1621565081.412,-16.602,-29.785,-26.367,-2.441
1621565081.416,-16.113,-28.320,-27.832,-12.207
1621565081.420,-51.270,-28.320,-23.926,-47.852
1621565081.424,-58.105,-27.832,-21.484,-46.875
1621565081.428,-24.414,-27.832,-24.414,-20.996
1621565081.432,-14.160,-26.855,-28.320,-21.973
1621565081.436,-51.758,-22.949,-27.832,-59.570
1621565081.440,-57.617,-20.020,-24.902,-55.176
1621565081.443,-27.344,-17.578,-26.855,-25.391
1621565081.447,-13.184,-18.066,-24.902,-16.113
1621565081.451,-39.062,-16.113,-24.414,-37.598
1621565081.455,-58.105,-20.508,-24.414,-47.363
1621565081.459,-49.805,-29.297,-23.926,-41.992
1621565081.463,-18.555,-28.320,-26.367,-18.555
1621565081.467,-36.133,-26.855,-28.320,-27.344
1621565081.471,-64.453,-24.902,-26.855,-47.363
1621565081.475,-54.688,-24.414,-28.320,-41.992
1621565081.479,-23.926,-24.902,-30.273,-23.438
1621565081.483,-25.391,-28.320,-31.250,-39.062
1621565081.487,-63.477,-27.832,-31.250,-70.312
1621565081.491,-63.965,-24.902,-25.391,-56.641
1621565081.495,-28.809,-22.461,-21.484,-20.996
1621565081.499,-9.766,-17.090,-23.926,-11.719
1621565081.503,-36.621,-20.508,-27.832,-38.574
1621565081.507,-57.129,-21.484,-25.879,-42.480
1621565081.511,-37.598,-16.602,-21.973,-24.902
1621565081.514,-17.578,-18.555,-24.414,-16.602
1621565081.518,-44.434,-22.949,-27.832,-42.969
1621565081.522,-65.918,-24.414,-29.785,-66.895
1621565081.526,-51.758,-21.973,-26.855,-45.898
1621565081.530,-20.020,-18.066,-25.391,-13.184
1621565081.534,-33.691,-20.508,-29.785,-35.156
1621565081.538,-71.289,-20.508,-29.785,-64.941
1621565081.542,-59.082,-19.043,-26.855,-53.223
1621565081.546,-24.414,-23.438,-25.879,-23.438
1621565081.550,-20.996,-20.020,-26.367,-22.461
1621565081.554,-46.387,-16.113,-24.414,-43.945
1621565081.558,-50.781,-21.484,-23.926,-49.316
1621565081.562,-23.926,-22.949,-25.391,-26.855
1621565081.566,-2.930,-20.508,-25.879,-8.301
1621565081.570,-38.086,-18.555,-31.738,-50.293
1621565081.574,-51.270,-20.508,-33.203,-61.035
1621565081.578,-26.367,-21.973,-27.832,-34.180
1621565081.582,-6.348,-18.555,-26.367,-5.859
1621565081.585,-21.973,-20.020,-27.344,-21.484
1621565081.589,-42.480,-20.020,-24.414,-46.387
1621565081.593,-34.668,-18.555,-25.879,-36.621
1621565081.597,-15.625,-19.531,-29.785,-10.254
1621565081.601,-21.973,-21.484,-26.367,-19.043
1621565081.605,-40.039,-18.555,-22.461,-35.645
1621565081.609,-42.480,-20.508,-24.902,-29.785
1621565081.613,-15.137,-23.926,-25.391,-3.906
1621565081.617,-3.906,-21.484,-26.367,-3.418
1621565081.621,-43.457,-22.461,-32.227,-41.504
1621565081.625,-57.129,-20.020,-32.715,-49.316
1621565081.629,-31.738,-18.066,-29.297,-28.320
1621565081.633,-21.484,-24.902,-27.832,-17.090
1621565081.637,-49.316,-20.508,-26.855,-42.969
1621565081.641,-53.223,-17.090,-25.391,-50.781
1621565081.645,-33.203,-20.020,-26.367,-23.926
1621565081.649,-11.719,-17.578,-23.438,-3.906
1621565081.653,-20.020,-19.043,-23.438,-25.879
1621565081.656,-44.434,-18.066,-21.973,-43.457
1621565081.660,-40.527,-18.066,-17.090,-29.297
1621565081.664,-15.137,-22.461,-20.020,-0.977
1621565081.668,-22.461,-23.438,-24.414,-22.461
1621565081.672,-50.781,-20.508,-26.855,-46.875
1621565081.676,-45.410,-19.531,-30.273,-44.434
1621565081.680,-14.160,-21.484,-28.809,-21.973
1621565081.684,-6.836,-22.461,-25.391,-15.625
1621565081.688,-43.457,-20.996,-24.902,-54.688
1621565081.692,-56.152,-20.508,-23.438,-59.570
1621565081.696,-31.250,-22.461,-25.879,-28.809
1621565081.700,-10.254,-22.461,-27.344,-12.207
1621565081.704,-44.434,-22.949,-29.297,-49.805
1621565081.708,-66.406,-21.973,-29.785,-69.336
1621565081.712,-37.598,-20.020,-27.832,-38.086
1621565081.716,0.977,-18.066,-27.832,-10.742
1621565081.720,-12.695,-18.555,-27.344,-31.738
1621565081.724,-46.875,-24.414,-27.344,-43.945
1621565081.727,-42.969,-24.414,-28.320,-31.738
1621565081.731,-12.207,-21.973,-30.273,-5.859
1621565081.735,-9.277,-23.438,-31.738,-15.137
1621565081.739,-48.828,-20.996,-30.762,-51.758
1621565081.743,-60.547,-20.020,-31.738,-50.781
