TimeStamp,Delta_TP9,Delta_AF7,Delta_AF8,Delta_TP10,Theta_TP9,Theta_AF7,Theta_AF8,Theta_TP10,Alpha_TP9,Alpha_AF7,Alpha_AF8,Alpha_TP10,Beta_TP9,Beta_AF7,Beta_AF8,Beta_TP10,Gamma_TP9,Gamma_AF7,Gamma_AF8,Gamma_TP10,RAW_TP9,RAW_AF7,RAW_AF8,RAW_TP10,AUX_RIGHT,Accelerometer_X,Accelerometer_Y,Accelerometer_Z,Gyro_X,Gyro_Y,Gyro_Z,HeadBandOn,HSI_TP9,HSI_AF7,HSI_AF8,HSI_TP10,Battery,Elements
2021-05-13 19:12:38.164,0.0,0.0,0.0,0.0,0.0,0.0,0.0,0.0,0.0,0.0,0.0,0.0,0.0,0.0,0.0,0.0,0.0,0.0,0.0,0.0,1625.8242,1626.227,1626.227,0.0,779.2674,-0.214111328125,-0.31927490234375,-0.912841796875,2.624359130859375,-0.82244873046875,4.05242919921875,1,4.0,4.0,2.0,2.0,5.00
2021-05-13 19:12:38.165,0.0,0.0,0.0,0.0,0.0,0.0,0.0,0.0,0.0,0.0,0.0,0.0,0.0,0.0,0.0,0.0,0.0,0.0,0.0,0.0,1625.8242,1626.227,1626.227,0.0,832.0513,-0.214111328125,-0.31927490234375,-0.912841796875,2.624359130859375,-0.82244873046875,4.05242919921875,1,4.0,4.0,2.0,2.0,5.00
2021-05-13 19:12:38.166,0.0,0.0,0.0,0.0,0.0,0.0,0.0,0.0,0.0,0.0,0.0,0.0,0.0,0.0,0.0,0.0,0.0,0.0,0.0,0.0,1625.8242,1626.227,1626.227,0.0,842.9304,-0.214111328125,-0.31927490234375,-0.912841796875,2.624359130859375,-0.82244873046875,4.05242919921875,1,4.0,4.0,2.0,2.0,5.00
2021-05-13 19:12:38.166,0.0,0.0,0.0,0.0,0.0,0.0,0.0,0.0,0.0,0.0,0.0,0.0,0.0,0.0,0.0,0.0,0.0,0.0,0.0,0.0,1625.8242,1626.227,1626.227,0.0,944.4689,-0.214111328125,-0.31927490234375,-0.912841796875,2.624359130859375,-0.82244873046875,4.05242919921875,1,4.0,4.0,2.0,2.0,5.00
2021-05-13 19:12:38.167,0.0,0.0,0.0,0.0,0.0,0.0,0.0,0.0,0.0,0.0,0.0,0.0,0.0,0.0,0.0,0.0,0.0,0.0,0.0,0.0,1626.227,1626.227,1626.227,0.0,684.57874,-0.214111328125,-0.31927490234375,-0.912841796875,2.624359130859375,-0.82244873046875,4.05242919921875,1,4.0,4.0,2.0,2.0,5.00
2021-05-13 19:12:38.167,0.0,0.0,0.0,0.0,0.0,0.0,0.0,0.0,0.0,0.0,0.0,0.0,0.0,0.0,0.0,0.0,0.0,0.0,0.0,0.0,1624.2124,1626.227,1626.227,0.0,414.6154,-0.214111328125,-0.31927490234375,-0.912841796875,2.624359130859375,-0.82244873046875,4.05242919921875,1,4.0,4.0,2.0,2.0,5.00
2021-05-13 19:12:38.167,0.0,0.0,0.0,0.0,0.0,0.0,0.0,0.0,0.0,0.0,0.0,0.0,0.0,0.0,0.0,0.0,0.0,0.0,0.0,0.0,1576.6666,1626.227,1626.227,0.0,861.4652,-0.214111328125,-0.31927490234375,-0.912841796875,2.624359130859375,-0.82244873046875,4.05242919921875,1,4.0,4.0,2.0,2.0,5.00
2021-05-13 19:12:38.168,0.0,0.0,0.0,0.0,0.0,0.0,0.0,0.0,0.0,0.0,0.0,0.0,0.0,0.0,0.0,0.0,0.0,0.0,0.0,0.0,86.630035,1626.227,1626.227,0.0,859.85345,-0.214111328125,-0.31927490234375,-0.912841796875,2.624359130859375,-0.82244873046875,4.05242919921875,1,4.0,4.0,2.0,2.0,5.00
2021-05-13 19:12:38.168,0.0,0.0,0.0,0.0,0.0,0.0,0.0,0.0,0.0,0.0,0.0,0.0,0.0,0.0,0.0,0.0,0.0,0.0,0.0,0.0,948.0952,1627.033,1626.227,0.0,618.9011,-0.214111328125,-0.31927490234375,-0.912841796875,2.624359130859375,-0.82244873046875,4.05242919921875,1,4.0,4.0,2.0,2.0,5.00
2021-05-13 19:12:38.168,0.0,0.0,0.0,0.0,0.0,0.0,0.0,0.0,0.0,0.0,0.0,0.0,0.0,0.0,0.0,0.0,0.0,0.0,0.0,0.0,0.0,1574.249,1626.227,0.0,967.8388,-0.214111328125,-0.31927490234375,-0.912841796875,2.624359130859375,-0.82244873046875,4.05242919921875,1,4.0,4.0,2.0,2.0,5.00
2021-05-13 19:12:38.169,0.0,0.0,0.0,0.0,0.0,0.0,0.0,0.0,0.0,0.0,0.0,0.0,0.0,0.0,0.0,0.0,0.0,0.0,0.0,0.0,17.728937,90.25641,1626.227,0.0,1174.9451,-0.214111328125,-0.31927490234375,-0.912841796875,2.624359130859375,-0.82244873046875,4.05242919921875,1,4.0,4.0,2.0,2.0,5.00
2021-05-13 19:12:38.169,0.0,0.0,0.0,0.0,0.0,0.0,0.0,0.0,0.0,0.0,0.0,0.0,0.0,0.0,0.0,0.0,0.0,0.0,0.0,0.0,19.74359,981.53845,1626.227,0.0,883.6264,-0.214111328125,-0.31927490234375,-0.912841796875,2.624359130859375,-0.82244873046875,4.05242919921875,1,4.0,4.0,2.0,2.0,5.00
2021-05-13 19:12:38.169,0.0,0.0,0.0,0.0,0.0,0.0,0.0,0.0,0.0,0.0,0.0,0.0,0.0,0.0,0.0,0.0,0.0,0.0,0.0,0.0,0.0,0.0,1626.227,0.0,731.31866,-0.22637939453125,-0.3135986328125,-0.90753173828125,1.7047119140625,2.19818115234375,2.6318359375,1,4.0,4.0,2.0,2.0,5.00
2021-05-13 19:12:38.170,0.0,0.0,0.0,0.0,0.0,0.0,0.0,0.0,0.0,0.0,0.0,0.0,0.0,0.0,0.0,0.0,0.0,0.0,0.0,0.0,0.0,12.893773,1626.227,0.0,951.31866,-0.22637939453125,-0.3135986328125,-0.90753173828125,1.7047119140625,2.19818115234375,2.6318359375,1,4.0,4.0,2.0,2.0,5.00
2021-05-13 19:12:38.170,0.0,0.0,0.0,0.0,0.0,0.0,0.0,0.0,0.0,0.0,0.0,0.0,0.0,0.0,0.0,0.0,0.0,0.0,0.0,0.0,0.0,22.161173,1626.227,0.0,1070.1831,-0.22637939453125,-0.3135986328125,-0.90753173828125,1.7047119140625,2.19818115234375,2.6318359375,1,4.0,4.0,2.0,2.0,5.00
2021-05-13 19:12:38.171,0.0,0.0,0.0,0.0,0.0,0.0,0.0,0.0,0.0,0.0,0.0,0.0,0.0,0.0,0.0,0.0,0.0,0.0,0.0,0.0,0.0,0.0,1626.227,0.0,902.96704,-0.22637939453125,-0.3135986328125,-0.90753173828125,1.7047119140625,2.19818115234375,2.6318359375,1,4.0,4.0,2.0,2.0,5.00
2021-05-13 19:12:38.171,0.0,0.0,0.0,0.0,0.0,0.0,0.0,0.0,0.0,0.0,0.0,0.0,0.0,0.0,0.0,0.0,0.0,0.0,0.0,0.0,0.0,0.0,1626.227,0.0,783.69965,-0.22637939453125,-0.3135986328125,-0.90753173828125,1.7047119140625,2.19818115234375,2.6318359375,1,4.0,4.0,2.0,2.0,5.00
2021-05-13 19:12:38.171,0.0,0.0,0.0,0.0,0.0,0.0,0.0,0.0,0.0,0.0,0.0,0.0,0.0,0.0,0.0,0.0,0.0,0.0,0.0,0.0,0.0,0.0,1626.227,0.0,525.0183,-0.22637939453125,-0.3135986328125,-0.90753173828125,1.7047119140625,2.19818115234375,2.6318359375,1,4.0,4.0,2.0,2.0,5.00
2021-05-13 19:12:38.172,0.0,0.0,0.0,0.0,0.0,0.0,0.0,0.0,0.0,0.0,0.0,0.0,0.0,0.0,0.0,0.0,0.0,0.0,0.0,0.0,0.0,0.0,1626.227,0.0,408.57144,-0.22637939453125,-0.3135986328125,-0.90753173828125,1.7047119140625,2.19818115234375,2.6318359375,1,4.0,4.0,2.0,2.0,5.00
2021-05-13 19:12:38.172,0.0,0.0,0.0,0.0,0.0,0.0,0.0,0.0,0.0,0.0,0.0,0.0,0.0,0.0,0.0,0.0,0.0,0.0,0.0,0.0,0.0,0.0,1626.227,0.0,795.78754,-0.22637939453125,-0.3135986328125,-0.90753173828125,1.7047119140625,2.19818115234375,2.6318359375,1,4.0,4.0,2.0,2.0,5.00
2021-05-13 19:12:38.172,0.0,0.0,0.0,0.0,0.0,0.0,0.0,0.0,0.0,0.0,0.0,0.0,0.0,0.0,0.0,0.0,0.0,0.0,0.0,0.0,0.0,0.0,1626.63,0.0,927.5458,-0.22637939453125,-0.3135986328125,-0.90753173828125,1.7047119140625,2.19818115234375,2.6318359375,1,4.0,4.0,2.0,2.0,5.00
2021-05-13 19:12:38.173,0.0,0.0,0.0,0.0,0.0,0.0,0.0,0.0,0.0,0.0,0.0,0.0,0.0,0.0,0.0,0.0,0.0,0.0,0.0,0.0,0.0,0.0,1626.63,0.0,816.337,-0.22637939453125,-0.3135986328125,-0.90753173828125,1.7047119140625,2.19818115234375,2.6318359375,1,4.0,4.0,1.0,2.0,5.00
2021-05-13 19:12:38.174,0.0,0.0,0.0,0.0,0.0,0.0,0.0,0.0,0.0,0.0,0.0,0.0,0.0,0.0,0.0,0.0,0.0,0.0,0.0,0.0,0.0,0.0,1626.227,0.0,626.9597,-0.22637939453125,-0.3135986328125,-0.90753173828125,1.7047119140625,2.19818115234375,2.6318359375,1,4.0,4.0,1.0,2.0,5.00
2021-05-13 19:12:38.175,0.0,0.0,0.0,0.0,0.0,0.0,0.0,0.0,0.0,0.0,0.0,0.0,0.0,0.0,0.0,0.0,0.0,0.0,0.0,0.0,0.0,0.0,1626.227,0.0,822.381,-0.22637939453125,-0.3135986328125,-0.90753173828125,1.7047119140625,2.19818115234375,2.6318359375,1,4.0,4.0,1.0,2.0,5.00
2021-05-13 19:12:38.211,0.0,0.0,0.0,0.0,0.0,0.0,0.0,0.0,0.0,0.0,0.0,0.0,0.0,0.0,0.0,0.0,0.0,0.0,0.0,0.0,0.0,0.0,1626.227,0.0,902.96704,-0.22637939453125,-0.3135986328125,-0.90753173828125,1.7047119140625,2.19818115234375,2.6318359375,1,4.0,4.0,1.0,2.0,5.00
2021-05-13 19:12:38.211,0.0,0.0,0.0,0.0,0.0,0.0,0.0,0.0,0.0,0.0,0.0,0.0,0.0,0.0,0.0,0.0,0.0,0.0,0.0,0.0,0.0,0.0,1626.227,0.0,807.0696,-0.22637939453125,-0.3135986328125,-0.90753173828125,1.7047119140625,2.19818115234375,2.6318359375,1,4.0,4.0,1.0,2.0,5.00
2021-05-13 19:12:38.211,0.0,0.0,0.0,0.0,0.0,0.0,0.0,0.0,0.0,0.0,0.0,0.0,0.0,0.0,0.0,0.0,0.0,0.0,0.0,0.0,0.0,0.0,1626.63,0.0,827.2161,-0.22637939453125,-0.3135986328125,-0.90753173828125,1.7047119140625,2.19818115234375,2.6318359375,1,4.0,4.0,1.0,2.0,5.00
2021-05-13 19:12:38.212,0.0,0.0,0.0,0.0,0.0,0.0,0.0,0.0,0.0,0.0,0.0,0.0,0.0,0.0,0.0,0.0,0.0,0.0,0.0,0.0,0.0,8.864469,1626.227,0.0,996.04395,-0.22637939453125,-0.3135986328125,-0.90753173828125,1.7047119140625,2.19818115234375,2.6318359375,1,4.0,4.0,1.0,2.0,5.00
2021-05-13 19:12:38.212,0.0,0.0,0.0,0.0,0.0,0.0,0.0,0.0,0.0,0.0,0.0,0.0,0.0,0.0,0.0,0.0,0.0,0.0,0.0,0.0,0.0,37.069595,1626.227,0.0,915.05493,-0.22637939453125,-0.3135986328125,-0.90753173828125,1.7047119140625,2.19818115234375,2.6318359375,1,4.0,4.0,1.0,2.0,5.00
2021-05-13 19:12:38.212,0.0,0.0,0.0,0.0,0.0,0.0,0.0,0.0,0.0,0.0,0.0,0.0,0.0,0.0,0.0,0.0,0.0,0.0,0.0,0.0,0.0,0.0,1626.63,0.0,585.4579,-0.22637939453125,-0.3135986328125,-0.90753173828125,1.7047119140625,2.19818115234375,2.6318359375,1,4.0,4.0,1.0,2.0,5.00
2021-05-13 19:12:38.213,0.0,0.0,0.0,0.0,0.0,0.0,0.0,0.0,0.0,0.0,0.0,0.0,0.0,0.0,0.0,0.0,0.0,0.0,0.0,0.0,0.0,747.8388,1625.4213,0.0,748.24176,-0.22637939453125,-0.3135986328125,-0.90753173828125,1.7047119140625,2.19818115234375,2.6318359375,1,4.0,4.0,1.0,2.0,5.00
2021-05-13 19:12:38.213,0.0,0.0,0.0,0.0,0.0,0.0,0.0,0.0,0.0,0.0,0.0,0.0,0.0,0.0,0.0,0.0,0.0,0.0,0.0,0.0,0.0,180.91576,1627.8389,0.0,772.4176,-0.22637939453125,-0.3135986328125,-0.90753173828125,1.7047119140625,2.19818115234375,2.6318359375,1,4.0,4.0,1.0,2.0,5.00
2021-05-13 19:12:38.213,0.0,0.0,0.0,0.0,0.0,0.0,0.0,0.0,0.0,0.0,0.0,0.0,0.0,0.0,0.0,0.0,0.0,0.0,0.0,0.0,0.0,976.7033,1624.2124,0.0,332.41757,-0.22637939453125,-0.3135986328125,-0.90753173828125,1.7047119140625,2.19818115234375,2.6318359375,1,4.0,4.0,1.0,2.0,5.00
2021-05-13 19:12:38.213,0.0,0.0,0.0,0.0,0.0,0.0,0.0,0.0,0.0,0.0,0.0,0.0,0.0,0.0,0.0,0.0,0.0,0.0,0.0,0.0,23.369963,0.0,1610.9158,39.084248,432.34433,-0.22637939453125,-0.3135986328125,-0.90753173828125,1.7047119140625,2.19818115234375,2.6318359375,1,4.0,4.0,1.0,2.0,5.00
2021-05-13 19:12:38.214,0.0,0.0,0.0,0.0,0.0,0.0,0.0,0.0,0.0,0.0,0.0,0.0,0.0,0.0,0.0,0.0,0.0,0.0,0.0,0.0,10.07326,663.22345,1623.4066,0.0,1041.1721,-0.22637939453125,-0.3135986328125,-0.90753173828125,1.7047119140625,2.19818115234375,2.6318359375,1,4.0,4.0,1.0,2.0,5.00
2021-05-13 19:12:38.214,0.0,0.0,0.0,0.0,0.0,0.0,0.0,0.0,0.0,0.0,0.0,0.0,0.0,0.0,0.0,0.0,0.0,0.0,0.0,0.0,0.0,55.604397,1628.2417,101.13553,1230.5494,-0.22637939453125,-0.3135986328125,-0.90753173828125,1.7047119140625,2.19818115234375,2.6318359375,1,4.0,4.0,1.0,2.0,5.00
2021-05-13 19:12:38.236,0.0,0.0,0.0,0.0,0.0,0.0,0.0,0.0,0.0,0.0,0.0,0.0,0.0,0.0,0.0,0.0,0.0,0.0,0.0,0.0,996.04395,1607.6923,1625.0183,1220.0732,1176.5568,-0.22479248046875,-0.3148193359375,-0.88507080078125,1.398162841796875,3.03558349609375,2.6019287109375,1,4.0,4.0,1.0,2.0,5.00
2021-05-13 19:12:38.236,0.0,0.0,0.0,0.0,0.0,0.0,0.0,0.0,0.0,0.0,0.0,0.0,0.0,0.0,0.0,0.0,0.0,0.0,0.0,0.0,88.24176,1603.2601,1626.227,63.663002,998.46155,-0.22479248046875,-0.3148193359375,-0.88507080078125,1.398162841796875,3.03558349609375,2.6019287109375,1,4.0,4.0,1.0,2.0,5.00
2021-05-13 19:12:38.237,0.0,0.0,0.0,0.0,0.0,0.0,0.0,0.0,0.0,0.0,0.0,0.0,0.0,0.0,0.0,0.0,0.0,0.0,0.0,0.0,1573.4432,1631.4652,1626.227,1574.249,990.80585,-0.22479248046875,-0.3148193359375,-0.88507080078125,1.398162841796875,3.03558349609375,2.6019287109375,1,4.0,4.0,1.0,2.0,5.00
2021-05-13 19:12:38.237,0.0,0.0,0.0,0.0,0.0,0.0,0.0,0.0,0.0,0.0,0.0,0.0,0.0,0.0,0.0,0.0,0.0,0.0,0.0,0.0,1626.63,1626.227,1626.227,1633.0769,925.5311,-0.22479248046875,-0.3148193359375,-0.88507080078125,1.398162841796875,3.03558349609375,2.6019287109375,1,4.0,4.0,1.0,2.0,5.00
2021-05-13 19:12:38.237,0.0,0.0,0.0,0.0,0.0,0.0,0.0,0.0,0.0,0.0,0.0,0.0,0.0,0.0,0.0,0.0,0.0,0.0,0.0,0.0,1626.227,1625.8242,1626.227,1626.227,423.88278,-0.22479248046875,-0.3148193359375,-0.88507080078125,1.398162841796875,3.03558349609375,2.6019287109375,1,4.0,4.0,1.0,2.0,5.00
2021-05-13 19:12:38.238,0.0,0.0,0.0,0.0,0.0,0.0,0.0,0.0,0.0,0.0,0.0,0.0,0.0,0.0,0.0,0.0,0.0,0.0,0.0,0.0,1622.6007,1633.0769,1626.227,1637.9121,255.05495,-0.22479248046875,-0.3148193359375,-0.88507080078125,1.398162841796875,3.03558349609375,2.6019287109375,1,4.0,4.0,1.0,2.0,5.00
2021-05-13 19:12:38.238,0.0,0.0,0.0,0.0,0.0,0.0,0.0,0.0,0.0,0.0,0.0,0.0,0.0,0.0,0.0,0.0,0.0,0.0,0.0,0.0,1578.6813,1567.3993,1626.227,1576.2638,885.2381,-0.22479248046875,-0.3148193359375,-0.88507080078125,1.398162841796875,3.03558349609375,2.6019287109375,1,4.0,4.0,1.0,2.0,5.00
2021-05-13 19:12:38.238,0.0,0.0,0.0,0.0,0.0,0.0,0.0,0.0,0.0,0.0,0.0,0.0,0.0,0.0,0.0,0.0,0.0,0.0,0.0,0.0,84.61539,89.04762,1625.4213,35.457874,885.64105,-0.22479248046875,-0.3148193359375,-0.88507080078125,1.398162841796875,3.03558349609375,2.6019287109375,1,4.0,4.0,1.0,2.0,5.00
2021-05-13 19:12:38.238,0.0,0.0,0.0,0.0,0.0,0.0,0.0,0.0,0.0,0.0,0.0,0.0,0.0,0.0,0.0,0.0,0.0,0.0,0.0,0.0,929.15753,1112.0879,1627.033,1445.3114,453.69965,-0.22479248046875,-0.3148193359375,-0.88507080078125,1.398162841796875,3.03558349609375,2.6019287109375,1,4.0,4.0,1.0,2.0,5.00
2021-05-13 19:12:38.238,0.0,0.0,0.0,0.0,0.0,0.0,0.0,0.0,0.0,0.0,0.0,0.0,0.0,0.0,0.0,0.0,0.0,0.0,0.0,0.0,0.0,0.0,1625.0183,273.58975,605.6044,-0.22479248046875,-0.3148193359375,-0.88507080078125,1.398162841796875,3.03558349609375,2.6019287109375,1,4.0,4.0,1.0,2.0,5.00
2021-05-13 19:12:38.239,0.0,0.0,0.0,0.0,0.0,0.0,0.0,0.0,0.0,0.0,0.0,0.0,0.0,0.0,0.0,0.0,0.0,0.0,0.0,0.0,20.14652,0.0,1617.3627,0.0,702.3077,-0.22479248046875,-0.3148193359375,-0.88507080078125,1.398162841796875,3.03558349609375,2.6019287109375,1,4.0,4.0,1.0,2.0,5.00
2021-05-13 19:12:38.239,,,,,,,,,,,,,,,,,,,,,,,,,,,,,,,,,,,,,,/muse/elements/blink
2021-05-13 19:12:38.239,,,,,,,,,,,,,,,,,,,,,,,,,,,,,,,,,,,,,,/muse/elements/jaw_clench
2021-05-13 19:12:38.239,0.0,0.0,0.0,0.0,0.0,0.0,0.0,0.0,0.0,0.0,0.0,0.0,0.0,0.0,0.0,0.0,0.0,0.0,0.0,0.0,18.131868,32.637363,1624.6154,52.38095,820.3663,-0.22479248046875,-0.3148193359375,-0.88507080078125,1.398162841796875,3.03558349609375,2.6019287109375,1,4.0,4.0,1.0,4.0,5.00
2021-05-13 19:12:38.268,0.0,0.0,0.0,0.0,0.0,0.0,0.0,0.0,0.0,0.0,0.0,0.0,0.0,0.0,0.0,0.0,0.0,0.0,0.0,0.0,0.0,0.0,1627.4359,0.0,1166.4835,-0.19439697265625,-0.302734375,-0.92120361328125,4.14215087890625,-1.39068603515625,4.0972900390625,1,4.0,4.0,1.0,4.0,5.00
2021-05-13 19:12:38.268,0.0,0.0,0.0,0.0,0.0,0.0,0.0,0.0,0.0,0.0,0.0,0.0,0.0,0.0,0.0,0.0,0.0,0.0,0.0,0.0,0.0,0.0,1625.8242,0.0,1193.4799,-0.19439697265625,-0.302734375,-0.92120361328125,4.14215087890625,-1.39068603515625,4.0972900390625,1,4.0,4.0,1.0,4.0,5.00
2021-05-13 19:12:38.269,0.0,0.0,0.0,0.0,0.0,0.0,0.0,0.0,0.0,0.0,0.0,0.0,0.0,0.0,0.0,0.0,0.0,0.0,0.0,0.0,0.0,0.0,1626.227,0.0,983.95605,-0.19439697265625,-0.302734375,-0.92120361328125,4.14215087890625,-1.39068603515625,4.0972900390625,1,4.0,4.0,1.0,4.0,5.00
2021-05-13 19:12:38.269,0.0,0.0,0.0,0.0,0.0,0.0,0.0,0.0,0.0,0.0,0.0,0.0,0.0,0.0,0.0,0.0,0.0,0.0,0.0,0.0,0.0,0.0,1626.227,0.0,886.4469,-0.19439697265625,-0.302734375,-0.92120361328125,4.14215087890625,-1.39068603515625,4.0972900390625,1,4.0,4.0,1.0,4.0,5.00
2021-05-13 19:12:38.269,0.0,0.0,0.0,0.0,0.0,0.0,0.0,0.0,0.0,0.0,0.0,0.0,0.0,0.0,0.0,0.0,0.0,0.0,0.0,0.0,11.282051,57.216118,1626.227,21.758242,999.2674,-0.19439697265625,-0.302734375,-0.92120361328125,4.14215087890625,-1.39068603515625,4.0972900390625,1,4.0,4.0,1.0,4.0,5.00
2021-05-13 19:12:38.269,0.0,0.0,0.0,0.0,0.0,0.0,0.0,0.0,0.0,0.0,0.0,0.0,0.0,0.0,0.0,0.0,0.0,0.0,0.0,0.0,32.637363,0.0,1626.227,12.087913,960.18317,-0.19439697265625,-0.302734375,-0.92120361328125,4.14215087890625,-1.39068603515625,4.0972900390625,1,4.0,4.0,1.0,4.0,5.00
2021-05-13 19:12:38.269,0.0,0.0,0.0,0.0,0.0,0.0,0.0,0.0,0.0,0.0,0.0,0.0,0.0,0.0,0.0,0.0,0.0,0.0,0.0,0.0,0.0,289.70697,1626.227,0.0,894.90845,-0.19439697265625,-0.302734375,-0.92120361328125,4.14215087890625,-1.39068603515625,4.0972900390625,1,4.0,4.0,1.0,4.0,5.00
2021-05-13 19:12:38.269,0.0,0.0,0.0,0.0,0.0,0.0,0.0,0.0,0.0,0.0,0.0,0.0,0.0,0.0,0.0,0.0,0.0,0.0,0.0,0.0,835.2747,1478.3517,1625.8242,977.9121,1044.3956,-0.19439697265625,-0.302734375,-0.92120361328125,4.14215087890625,-1.39068603515625,4.0972900390625,1,4.0,4.0,1.0,4.0,5.00
2021-05-13 19:12:38.270,0.0,0.0,0.0,0.0,0.0,0.0,0.0,0.0,0.0,0.0,0.0,0.0,0.0,0.0,0.0,0.0,0.0,0.0,0.0,0.0,75.347984,29.010988,1625.8242,85.01832,1041.1721,-0.19439697265625,-0.302734375,-0.92120361328125,4.14215087890625,-1.39068603515625,4.0972900390625,1,4.0,4.0,1.0,4.0,5.00
2021-05-13 19:12:38.270,0.0,0.0,0.0,0.0,0.0,0.0,0.0,0.0,0.0,0.0,0.0,0.0,0.0,0.0,0.0,0.0,0.0,0.0,0.0,0.0,1587.5458,1577.0696,1626.227,1576.6666,981.53845,-0.19439697265625,-0.302734375,-0.92120361328125,4.14215087890625,-1.39068603515625,4.0972900390625,1,4.0,4.0,1.0,4.0,5.00
2021-05-13 19:12:38.270,0.0,0.0,0.0,0.0,0.0,0.0,0.0,0.0,0.0,0.0,0.0,0.0,0.0,0.0,0.0,0.0,0.0,0.0,0.0,0.0,1615.751,1638.3151,1626.227,1625.8242,987.5824,-0.19439697265625,-0.302734375,-0.92120361328125,4.14215087890625,-1.39068603515625,4.0972900390625,1,4.0,4.0,1.0,4.0,5.00
2021-05-13 19:12:38.270,0.0,0.0,0.0,0.0,0.0,0.0,0.0,0.0,0.0,0.0,0.0,0.0,0.0,0.0,0.0,0.0,0.0,0.0,0.0,0.0,1577.8755,1626.227,1626.227,1626.227,926.7399,-0.19439697265625,-0.302734375,-0.92120361328125,4.14215087890625,-1.39068603515625,4.0972900390625,1,4.0,4.0,1.0,4.0,5.00
2021-05-13 19:12:38.329,0.0,0.0,0.0,0.0,0.0,0.0,0.0,0.0,0.0,0.0,0.0,0.0,0.0,0.0,0.0,0.0,0.0,0.0,0.0,0.0,87.03297,1625.8242,1626.227,1625.8242,717.2161,-0.234619140625,-0.30999755859375,-0.92431640625,1.054229736328125,0.67291259765625,3.4991455078125,1,4.0,4.0,1.0,4.0,5.00
2021-05-13 19:12:38.329,0.0,0.0,0.0,0.0,0.0,0.0,0.0,0.0,0.0,0.0,0.0,0.0,0.0,0.0,0.0,0.0,0.0,0.0,0.0,0.0,952.52747,1626.227,1626.227,1626.227,545.9707,-0.234619140625,-0.30999755859375,-0.92431640625,1.054229736328125,0.67291259765625,3.4991455078125,1,4.0,4.0,1.0,4.0,5.00
2021-05-13 19:12:38.330,0.0,0.0,0.0,0.0,0.0,0.0,0.0,0.0,0.0,0.0,0.0,0.0,0.0,0.0,0.0,0.0,0.0,0.0,0.0,0.0,0.0,1626.227,1626.227,1626.227,882.4176,-0.234619140625,-0.30999755859375,-0.92431640625,1.054229736328125,0.67291259765625,3.4991455078125,1,4.0,4.0,1.0,4.0,5.00
2021-05-13 19:12:38.330,0.0,0.0,0.0,0.0,0.0,0.0,0.0,0.0,0.0,0.0,0.0,0.0,0.0,0.0,0.0,0.0,0.0,0.0,0.0,0.0,16.923077,1627.4359,1626.227,1626.227,1156.0073,-0.234619140625,-0.30999755859375,-0.92431640625,1.054229736328125,0.67291259765625,3.4991455078125,1,4.0,4.0,1.0,4.0,5.00
2021-05-13 19:12:38.330,0.0,0.0,0.0,0.0,0.0,0.0,0.0,0.0,0.0,0.0,0.0,0.0,0.0,0.0,0.0,0.0,0.0,0.0,0.0,0.0,20.14652,1619.3773,1632.674,1635.8975,952.9304,-0.234619140625,-0.30999755859375,-0.92431640625,1.054229736328125,0.67291259765625,3.4991455078125,1,4.0,4.0,1.0,4.0,5.00
2021-05-13 19:12:38.330,0.0,0.0,0.0,0.0,0.0,0.0,0.0,0.0,0.0,0.0,0.0,0.0,0.0,0.0,0.0,0.0,0.0,0.0,0.0,0.0,0.0,1585.9341,1591.1721,1565.7876,720.84247,-0.234619140625,-0.30999755859375,-0.92431640625,1.054229736328125,0.67291259765625,3.4991455078125,1,4.0,4.0,1.0,4.0,5.00
2021-05-13 19:12:38.331,0.0,0.0,0.0,0.0,0.0,0.0,0.0,0.0,0.0,0.0,0.0,0.0,0.0,0.0,0.0,0.0,0.0,0.0,0.0,0.0,0.0,77.765564,9.267399,83.40659,546.77655,-0.234619140625,-0.30999755859375,-0.92431640625,1.054229736328125,0.67291259765625,3.4991455078125,1,4.0,4.0,1.0,4.0,5.00
2021-05-13 19:12:38.331,0.0,0.0,0.0,0.0,0.0,0.0,0.0,0.0,0.0,0.0,0.0,0.0,0.0,0.0,0.0,0.0,0.0,0.0,0.0,0.0,0.0,861.06226,1471.0989,1193.4799,448.0586,-0.234619140625,-0.30999755859375,-0.92431640625,1.054229736328125,0.67291259765625,3.4991455078125,1,4.0,4.0,1.0,4.0,5.00
2021-05-13 19:12:38.331,0.0,0.0,0.0,0.0,0.0,0.0,0.0,0.0,0.0,0.0,0.0,0.0,0.0,0.0,0.0,0.0,0.0,0.0,0.0,0.0,0.0,0.0,430.7326,33.443222,514.5421,-0.234619140625,-0.30999755859375,-0.92431640625,1.054229736328125,0.67291259765625,3.4991455078125,1,4.0,4.0,1.0,4.0,5.00
2021-05-13 19:12:38.331,0.0,0.0,0.0,0.0,0.0,0.0,0.0,0.0,0.0,0.0,0.0,0.0,0.0,0.0,0.0,0.0,0.0,0.0,0.0,0.0,0.0,29.010988,0.0,0.0,263.9194,-0.234619140625,-0.30999755859375,-0.92431640625,1.054229736328125,0.67291259765625,3.4991455078125,1,4.0,4.0,1.0,4.0,5.00
2021-05-13 19:12:38.331,0.0,0.0,0.0,0.0,0.0,0.0,0.0,0.0,0.0,0.0,0.0,0.0,0.0,0.0,0.0,0.0,0.0,0.0,0.0,0.0,0.0,13.296703,38.68132,39.084248,363.04028,-0.234619140625,-0.30999755859375,-0.92431640625,1.054229736328125,0.67291259765625,3.4991455078125,1,4.0,4.0,1.0,4.0,5.00
2021-05-13 19:12:38.332,0.0,0.0,0.0,0.0,0.0,0.0,0.0,0.0,0.0,0.0,0.0,0.0,0.0,0.0,0.0,0.0,0.0,0.0,0.0,0.0,0.0,0.0,0.0,0.0,622.9304,-0.234619140625,-0.30999755859375,-0.92431640625,1.054229736328125,0.67291259765625,3.4991455078125,1,4.0,4.0,1.0,4.0,5.00
2021-05-13 19:12:38.352,0.0,0.0,0.0,0.0,0.0,0.0,0.0,0.0,0.0,0.0,0.0,0.0,0.0,0.0,0.0,0.0,0.0,0.0,0.0,0.0,0.0,0.0,0.0,0.0,619.304,-0.2021484375,-0.31744384765625,-0.88055419921875,2.55706787109375,2.52716064453125,5.734710693359375,1,4.0,4.0,1.0,4.0,5.00
2021-05-13 19:12:38.353,0.0,0.0,0.0,0.0,0.0,0.0,0.0,0.0,0.0,0.0,0.0,0.0,0.0,0.0,0.0,0.0,0.0,0.0,0.0,0.0,0.0,0.0,0.0,0.0,578.20514,-0.2021484375,-0.31744384765625,-0.88055419921875,2.55706787109375,2.52716064453125,5.734710693359375,1,4.0,4.0,4.0,4.0,5.00
2021-05-13 19:12:38.354,0.0,0.0,0.0,0.0,0.0,0.0,0.0,0.0,0.0,0.0,0.0,0.0,0.0,0.0,0.0,0.0,0.0,0.0,0.0,0.0,0.0,0.0,0.0,0.0,742.6007,-0.2021484375,-0.31744384765625,-0.88055419921875,2.55706787109375,2.52716064453125,5.734710693359375,1,4.0,4.0,4.0,4.0,5.00
2021-05-13 19:12:38.354,0.0,0.0,0.0,0.0,0.0,0.0,0.0,0.0,0.0,0.0,0.0,0.0,0.0,0.0,0.0,0.0,0.0,0.0,0.0,0.0,0.0,0.0,6.0439563,0.0,917.8755,-0.2021484375,-0.31744384765625,-0.88055419921875,2.55706787109375,2.52716064453125,5.734710693359375,1,4.0,4.0,4.0,4.0,5.00
2021-05-13 19:12:38.355,0.0,0.0,0.0,0.0,0.0,0.0,0.0,0.0,0.0,0.0,0.0,0.0,0.0,0.0,0.0,0.0,0.0,0.0,0.0,0.0,0.0,0.0,0.0,0.0,875.16486,-0.2021484375,-0.31744384765625,-0.88055419921875,2.55706787109375,2.52716064453125,5.734710693359375,1,4.0,4.0,4.0,4.0,5.00
2021-05-13 19:12:38.355,0.0,0.0,0.0,0.0,0.0,0.0,0.0,0.0,0.0,0.0,0.0,0.0,0.0,0.0,0.0,0.0,0.0,0.0,0.0,0.0,0.0,0.0,33.846153,0.0,829.6337,-0.2021484375,-0.31744384765625,-0.88055419921875,2.55706787109375,2.52716064453125,5.734710693359375,1,4.0,4.0,4.0,4.0,5.00
2021-05-13 19:12:38.355,0.0,0.0,0.0,0.0,0.0,0.0,0.0,0.0,0.0,0.0,0.0,0.0,0.0,0.0,0.0,0.0,0.0,0.0,0.0,0.0,0.0,3.6263735,97.509155,0.0,550.0,-0.2021484375,-0.31744384765625,-0.88055419921875,2.55706787109375,2.52716064453125,5.734710693359375,1,4.0,4.0,4.0,4.0,5.00
2021-05-13 19:12:38.355,0.0,0.0,0.0,0.0,0.0,0.0,0.0,0.0,0.0,0.0,0.0,0.0,0.0,0.0,0.0,0.0,0.0,0.0,0.0,0.0,59.23077,44.725273,69.30403,57.216118,346.52014,-0.2021484375,-0.31744384765625,-0.88055419921875,2.55706787109375,2.52716064453125,5.734710693359375,1,4.0,4.0,4.0,4.0,5.00
2021-05-13 19:12:38.355,0.0,0.0,0.0,0.0,0.0,0.0,0.0,0.0,0.0,0.0,0.0,0.0,0.0,0.0,0.0,0.0,0.0,0.0,0.0,0.0,0.0,0.0,0.0,0.0,771.6117,-0.2021484375,-0.31744384765625,-0.88055419921875,2.55706787109375,2.52716064453125,5.734710693359375,1,4.0,4.0,4.0,4.0,5.00
2021-05-13 19:12:38.355,0.0,0.0,0.0,0.0,0.0,0.0,0.0,0.0,0.0,0.0,0.0,0.0,0.0,0.0,0.0,0.0,0.0,0.0,0.0,0.0,495.20148,716.8132,385.6044,541.13556,1031.9048,-0.2021484375,-0.31744384765625,-0.88055419921875,2.55706787109375,2.52716064453125,5.734710693359375,1,4.0,4.0,4.0,4.0,5.00
2021-05-13 19:12:38.356,0.0,0.0,0.0,0.0,0.0,0.0,0.0,0.0,0.0,0.0,0.0,0.0,0.0,0.0,0.0,0.0,0.0,0.0,0.0,0.0,1627.4359,51.978024,1524.6886,1646.3737,1113.6996,-0.2021484375,-0.31744384765625,-0.88055419921875,2.55706787109375,2.52716064453125,5.734710693359375,1,4.0,4.0,4.0,4.0,5.00
2021-05-13 19:12:38.356,0.0,0.0,0.0,0.0,0.0,0.0,0.0,0.0,0.0,0.0,0.0,0.0,0.0,0.0,0.0,0.0,0.0,0.0,0.0,0.0,1637.1062,1602.8572,11.684981,1629.8535,776.8498,-0.2021484375,-0.31744384765625,-0.88055419921875,2.55706787109375,2.52716064453125,5.734710693359375,1,4.0,4.0,4.0,4.0,5.00
2021-05-13 19:12:38.418,0.0,0.0,0.0,0.0,0.0,0.0,0.0,0.0,0.0,0.0,0.0,0.0,0.0,0.0,0.0,0.0,0.0,0.0,0.0,0.0,1590.7693,1608.9011,1584.3224,1595.2014,839.707,-0.2021484375,-0.31744384765625,-0.88055419921875,2.55706787109375,2.52716064453125,5.734710693359375,1,4.0,4.0,4.0,4.0,5.00
2021-05-13 19:12:38.419,0.0,0.0,0.0,0.0,0.0,0.0,0.0,0.0,0.0,0.0,0.0,0.0,0.0,0.0,0.0,0.0,0.0,0.0,0.0,0.0,1635.0916,1629.8535,1636.3004,1634.2858,1259.5604,-0.2021484375,-0.31744384765625,-0.88055419921875,2.55706787109375,2.52716064453125,5.734710693359375,1,4.0,4.0,4.0,4.0,5.00
2021-05-13 19:12:38.419,0.0,0.0,0.0,0.0,0.0,0.0,0.0,0.0,0.0,0.0,0.0,0.0,0.0,0.0,0.0,0.0,0.0,0.0,0.0,0.0,1625.4213,1625.8242,1626.227,1626.227,695.4579,-0.2021484375,-0.31744384765625,-0.88055419921875,2.55706787109375,2.52716064453125,5.734710693359375,1,4.0,4.0,4.0,4.0,5.00
2021-05-13 19:12:38.419,0.0,0.0,0.0,0.0,0.0,0.0,0.0,0.0,0.0,0.0,0.0,0.0,0.0,0.0,0.0,0.0,0.0,0.0,0.0,0.0,1625.4213,1626.227,1626.227,1626.227,677.326,-0.2021484375,-0.31744384765625,-0.88055419921875,2.55706787109375,2.52716064453125,5.734710693359375,1,4.0,4.0,4.0,4.0,5.00
2021-05-13 19:12:38.419,0.0,0.0,0.0,0.0,0.0,0.0,0.0,0.0,0.0,0.0,0.0,0.0,0.0,0.0,0.0,0.0,0.0,0.0,0.0,0.0,1625.4213,1626.227,1626.227,1625.8242,838.0952,-0.2021484375,-0.31744384765625,-0.88055419921875,2.55706787109375,2.52716064453125,5.734710693359375,1,4.0,4.0,4.0,4.0,5.00
2021-05-13 19:12:38.420,0.0,0.0,0.0,0.0,0.0,0.0,0.0,0.0,0.0,0.0,0.0,0.0,0.0,0.0,0.0,0.0,0.0,0.0,0.0,0.0,1625.4213,1626.227,1626.227,1626.227,744.21246,-0.2021484375,-0.31744384765625,-0.88055419921875,2.55706787109375,2.52716064453125,5.734710693359375,1,4.0,4.0,4.0,4.0,5.00
2021-05-13 19:12:38.420,0.0,0.0,0.0,0.0,0.0,0.0,0.0,0.0,0.0,0.0,0.0,0.0,0.0,0.0,0.0,0.0,0.0,0.0,0.0,0.0,1625.4213,1626.227,1626.227,1625.8242,997.25275,-0.2021484375,-0.31744384765625,-0.88055419921875,2.55706787109375,2.52716064453125,5.734710693359375,1,4.0,4.0,4.0,4.0,5.00
2021-05-13 19:12:38.420,0.0,0.0,0.0,0.0,0.0,0.0,0.0,0.0,0.0,0.0,0.0,0.0,0.0,0.0,0.0,0.0,0.0,0.0,0.0,0.0,1625.4213,1626.227,1626.227,1626.227,933.9927,-0.2021484375,-0.31744384765625,-0.88055419921875,2.55706787109375,2.52716064453125,5.734710693359375,1,4.0,4.0,4.0,4.0,5.00
2021-05-13 19:12:38.420,0.0,0.0,0.0,0.0,0.0,0.0,0.0,0.0,0.0,0.0,0.0,0.0,0.0,0.0,0.0,0.0,0.0,0.0,0.0,0.0,1625.4213,1625.8242,1626.227,1626.227,914.2491,-0.2021484375,-0.31744384765625,-0.88055419921875,2.55706787109375,2.52716064453125,5.734710693359375,1,4.0,4.0,4.0,4.0,5.00
2021-05-13 19:12:38.420,0.0,0.0,0.0,0.0,0.0,0.0,0.0,0.0,0.0,0.0,0.0,0.0,0.0,0.0,0.0,0.0,0.0,0.0,0.0,0.0,1625.8242,1626.227,1625.8242,1627.8389,1164.8718,-0.2021484375,-0.31744384765625,-0.88055419921875,2.55706787109375,2.52716064453125,5.734710693359375,1,4.0,4.0,4.0,4.0,5.00
2021-05-13 19:12:38.421,0.0,0.0,0.0,0.0,0.0,0.0,0.0,0.0,0.0,0.0,0.0,0.0,0.0,0.0,0.0,0.0,0.0,0.0,0.0,0.0,1625.0183,1626.63,1632.2711,1617.7656,1152.381,-0.2021484375,-0.31744384765625,-0.88055419921875,2.55706787109375,2.52716064453125,5.734710693359375,1,4.0,4.0,4.0,4.0,5.00
2021-05-13 19:12:38.421,0.0,0.0,0.0,0.0,0.0,0.0,0.0,0.0,0.0,0.0,0.0,0.0,0.0,0.0,0.0,0.0,0.0,0.0,0.0,0.0,1575.0549,1574.249,1569.414,1587.9487,1125.3846,-0.2021484375,-0.31744384765625,-0.88055419921875,2.55706787109375,2.52716064453125,5.734710693359375,1,4.0,4.0,4.0,4.0,5.00
2021-05-13 19:12:38.485,0.0,0.0,0.0,0.0,0.0,0.0,0.0,0.0,0.0,0.0,0.0,0.0,0.0,0.0,0.0,0.0,0.0,0.0,0.0,0.0,88.24176,90.25641,84.61539,71.31868,799.011,-0.19586181640625,-0.3092041015625,-0.88018798828125,3.0804443359375,1.637420654296875,4.134674072265625,1,4.0,4.0,4.0,4.0,5.00
2021-05-13 19:12:38.486,0.0,0.0,0.0,0.0,0.0,0.0,0.0,0.0,0.0,0.0,0.0,0.0,0.0,0.0,0.0,0.0,0.0,0.0,0.0,0.0,964.21246,981.53845,1119.3407,844.94507,516.55676,-0.19586181640625,-0.3092041015625,-0.88018798828125,3.0804443359375,1.637420654296875,4.134674072265625,1,4.0,4.0,4.0,4.0,5.00
2021-05-13 19:12:38.486,0.0,0.0,0.0,0.0,0.0,0.0,0.0,0.0,0.0,0.0,0.0,0.0,0.0,0.0,0.0,0.0,0.0,0.0,0.0,0.0,0.0,0.0,4.835165,0.0,438.7912,-0.19586181640625,-0.3092041015625,-0.88018798828125,3.0804443359375,1.637420654296875,4.134674072265625,1,4.0,4.0,4.0,4.0,5.00
2021-05-13 19:12:38.486,0.0,0.0,0.0,0.0,0.0,0.0,0.0,0.0,0.0,0.0,0.0,0.0,0.0,0.0,0.0,0.0,0.0,0.0,0.0,0.0,15.714286,12.893773,0.0,29.81685,322.34433,-0.19586181640625,-0.3092041015625,-0.88018798828125,3.0804443359375,1.637420654296875,4.134674072265625,1,4.0,4.0,4.0,4.0,5.00
2021-05-13 19:12:38.487,0.0,0.0,0.0,0.0,0.0,0.0,0.0,0.0,0.0,0.0,0.0,0.0,0.0,0.0,0.0,0.0,0.0,0.0,0.0,0.0,20.952381,22.161173,33.040295,12.490843,851.79486,-0.19586181640625,-0.3092041015625,-0.88018798828125,3.0804443359375,1.637420654296875,4.134674072265625,1,4.0,4.0,4.0,4.0,5.00
2021-05-13 19:12:38.488,0.0,0.0,0.0,0.0,0.0,0.0,0.0,0.0,0.0,0.0,0.0,0.0,0.0,0.0,0.0,0.0,0.0,0.0,0.0,0.0,0.0,0.0,0.0,0.0,1056.8865,-0.19586181640625,-0.3092041015625,-0.88018798828125,3.0804443359375,1.637420654296875,4.134674072265625,1,4.0,4.0,4.0,4.0,5.00
2021-05-13 19:12:38.488,0.0,0.0,0.0,0.0,0.0,0.0,0.0,0.0,0.0,0.0,0.0,0.0,0.0,0.0,0.0,0.0,0.0,0.0,0.0,0.0,0.0,0.0,0.0,0.0,699.89014,-0.19586181640625,-0.3092041015625,-0.88018798828125,3.0804443359375,1.637420654296875,4.134674072265625,1,4.0,4.0,4.0,4.0,5.00
2021-05-13 19:12:38.488,0.0,0.0,0.0,0.0,0.0,0.0,0.0,0.0,0.0,0.0,0.0,0.0,0.0,0.0,0.0,0.0,0.0,0.0,0.0,0.0,0.0,0.0,0.0,0.0,304.6154,-0.19586181640625,-0.3092041015625,-0.88018798828125,3.0804443359375,1.637420654296875,4.134674072265625,1,4.0,4.0,4.0,4.0,5.00
2021-05-13 19:12:38.488,0.0,0.0,0.0,0.0,0.0,0.0,0.0,0.0,0.0,0.0,0.0,0.0,0.0,0.0,0.0,0.0,0.0,0.0,0.0,0.0,0.0,0.0,0.0,0.0,423.47986,-0.19586181640625,-0.3092041015625,-0.88018798828125,3.0804443359375,1.637420654296875,4.134674072265625,1,4.0,4.0,4.0,4.0,5.00
2021-05-13 19:12:38.488,0.0,0.0,0.0,0.0,0.0,0.0,0.0,0.0,0.0,0.0,0.0,0.0,0.0,0.0,0.0,0.0,0.0,0.0,0.0,0.0,0.0,0.0,0.0,0.0,959.3773,-0.19586181640625,-0.3092041015625,-0.88018798828125,3.0804443359375,1.637420654296875,4.134674072265625,1,4.0,4.0,4.0,4.0,5.00
2021-05-13 19:12:38.488,0.0,0.0,0.0,0.0,0.0,0.0,0.0,0.0,0.0,0.0,0.0,0.0,0.0,0.0,0.0,0.0,0.0,0.0,0.0,0.0,0.0,0.0,0.0,0.0,584.65204,-0.19586181640625,-0.3092041015625,-0.88018798828125,3.0804443359375,1.637420654296875,4.134674072265625,1,4.0,4.0,4.0,4.0,5.00
2021-05-13 19:12:38.489,0.0,0.0,0.0,0.0,0.0,0.0,0.0,0.0,0.0,0.0,0.0,0.0,0.0,0.0,0.0,0.0,0.0,0.0,0.0,0.0,0.0,19.74359,0.0,0.0,441.61172,-0.19586181640625,-0.3092041015625,-0.88018798828125,3.0804443359375,1.637420654296875,4.134674072265625,1,4.0,4.0,4.0,4.0,5.00
2021-05-13 19:12:38.519,0.0,0.0,0.0,0.0,0.0,0.0,0.0,0.0,0.0,0.0,0.0,0.0,0.0,0.0,0.0,0.0,0.0,0.0,0.0,0.0,54.798534,15.714286,2.8205128,0.0,886.4469,-0.22222900390625,-0.306396484375,-0.917236328125,0.70281982421875,-1.06170654296875,4.239349365234375,1,4.0,4.0,4.0,4.0,5.00
2021-05-13 19:12:38.520,0.0,0.0,0.0,0.0,0.0,0.0,0.0,0.0,0.0,0.0,0.0,0.0,0.0,0.0,0.0,0.0,0.0,0.0,0.0,0.0,0.0,0.0,0.0,0.0,866.7033,-0.22222900390625,-0.306396484375,-0.917236328125,0.70281982421875,-1.06170654296875,4.239349365234375,1,4.0,4.0,4.0,4.0,5.00
2021-05-13 19:12:38.520,0.0,0.0,0.0,0.0,0.0,0.0,0.0,0.0,0.0,0.0,0.0,0.0,0.0,0.0,0.0,0.0,0.0,0.0,0.0,0.0,585.4579,963.8095,38.68132,0.0,778.0586,-0.22222900390625,-0.306396484375,-0.917236328125,0.70281982421875,-1.06170654296875,4.239349365234375,1,4.0,4.0,4.0,4.0,5.00
2021-05-13 19:12:38.520,0.0,0.0,0.0,0.0,0.0,0.0,0.0,0.0,0.0,0.0,0.0,0.0,0.0,0.0,0.0,0.0,0.0,0.0,0.0,0.0,12.893773,84.61539,43.919415,0.0,617.6923,-0.22222900390625,-0.306396484375,-0.917236328125,0.70281982421875,-1.06170654296875,4.239349365234375,1,4.0,4.0,4.0,4.0,5.00
2021-05-13 19:12:38.520,0.0,0.0,0.0,0.0,0.0,0.0,0.0,0.0,0.0,0.0,0.0,0.0,0.0,0.0,0.0,0.0,0.0,0.0,0.0,0.0,1621.7949,1577.8755,609.2308,0.0,546.77655,-0.22222900390625,-0.306396484375,-0.917236328125,0.70281982421875,-1.06170654296875,4.239349365234375,1,4.0,4.0,4.0,4.0,5.00
2021-05-13 19:12:38.521,0.0,0.0,0.0,0.0,0.0,0.0,0.0,0.0,0.0,0.0,0.0,0.0,0.0,0.0,0.0,0.0,0.0,0.0,0.0,0.0,1598.4249,1625.0183,1522.2711,0.0,643.0769,-0.22222900390625,-0.306396484375,-0.917236328125,0.70281982421875,-1.06170654296875,4.239349365234375,1,4.0,4.0,4.0,4.0,5.00
2021-05-13 19:12:38.521,0.0,0.0,0.0,0.0,0.0,0.0,0.0,0.0,0.0,0.0,0.0,0.0,0.0,0.0,0.0,0.0,0.0,0.0,0.0,0.0,1632.674,1626.63,32.234432,0.0,566.52014,-0.22222900390625,-0.306396484375,-0.917236328125,0.70281982421875,-1.06170654296875,4.239349365234375,1,4.0,4.0,4.0,4.0,5.00
2021-05-13 19:12:38.521,0.0,0.0,0.0,0.0,0.0,0.0,0.0,0.0,0.0,0.0,0.0,0.0,0.0,0.0,0.0,0.0,0.0,0.0,0.0,0.0,1625.8242,1626.227,1210.0,0.0,401.3187,-0.22222900390625,-0.306396484375,-0.917236328125,0.70281982421875,-1.06170654296875,4.239349365234375,1,4.0,4.0,4.0,4.0,5.00
2021-05-13 19:12:38.521,0.0,0.0,0.0,0.0,0.0,0.0,0.0,0.0,0.0,0.0,0.0,0.0,0.0,0.0,0.0,0.0,0.0,0.0,0.0,0.0,1625.8242,1626.227,1233.773,0.0,721.6484,-0.22222900390625,-0.306396484375,-0.917236328125,0.70281982421875,-1.06170654296875,4.239349365234375,1,4.0,4.0,4.0,4.0,5.00
2021-05-13 19:12:38.522,0.0,0.0,0.0,0.0,0.0,0.0,0.0,0.0,0.0,0.0,0.0,0.0,0.0,0.0,0.0,0.0,0.0,0.0,0.0,0.0,1625.8242,1626.227,7.252747,0.0,1097.1794,-0.22222900390625,-0.306396484375,-0.917236328125,0.70281982421875,-1.06170654296875,4.239349365234375,1,4.0,4.0,4.0,4.0,5.00
2021-05-13 19:12:38.522,0.0,0.0,0.0,0.0,0.0,0.0,0.0,0.0,0.0,0.0,0.0,0.0,0.0,0.0,0.0,0.0,0.0,0.0,0.0,0.0,1625.4213,1626.227,1645.5677,0.0,1179.7803,-0.22222900390625,-0.306396484375,-0.917236328125,0.70281982421875,-1.06170654296875,4.239349365234375,1,4.0,4.0,4.0,4.0,5.00
2021-05-13 19:12:38.522,0.0,0.0,0.0,0.0,0.0,0.0,0.0,0.0,0.0,0.0,0.0,0.0,0.0,0.0,0.0,0.0,0.0,0.0,0.0,0.0,1625.8242,1626.227,1559.3407,0.0,866.30035,-0.22222900390625,-0.306396484375,-0.917236328125,0.70281982421875,-1.06170654296875,4.239349365234375,1,4.0,4.0,4.0,4.0,5.00
2021-05-13 19:12:38.553,0.0,0.0,0.0,0.0,0.0,0.0,0.0,0.0,0.0,0.0,0.0,0.0,0.0,0.0,0.0,0.0,0.0,0.0,0.0,0.0,1625.8242,1626.227,1454.1758,0.0,664.83514,-0.23455810546875,-0.29205322265625,-0.92547607421875,-0.5682373046875,3.1103515625,4.164581298828125,1,4.0,4.0,4.0,4.0,5.00
2021-05-13 19:12:38.554,0.0,0.0,0.0,0.0,0.0,0.0,0.0,0.0,0.0,0.0,0.0,0.0,0.0,0.0,0.0,0.0,0.0,0.0,0.0,0.0,1625.4213,1626.227,1613.7362,0.0,1085.8975,-0.23455810546875,-0.29205322265625,-0.92547607421875,-0.5682373046875,3.1103515625,4.164581298828125,1,4.0,4.0,4.0,4.0,5.00
2021-05-13 19:12:38.554,0.0,0.0,0.0,0.0,0.0,0.0,0.0,0.0,0.0,0.0,0.0,0.0,0.0,0.0,0.0,0.0,0.0,0.0,0.0,0.0,1625.4213,1626.227,1639.1208,0.0,1037.1428,-0.23455810546875,-0.29205322265625,-0.92547607421875,-0.5682373046875,3.1103515625,4.164581298828125,1,4.0,4.0,4.0,4.0,5.00
2021-05-13 19:12:38.554,0.0,0.0,0.0,0.0,0.0,0.0,0.0,0.0,0.0,0.0,0.0,0.0,0.0,0.0,0.0,0.0,0.0,0.0,0.0,0.0,1625.4213,1626.227,1617.3627,0.0,1080.2565,-0.23455810546875,-0.29205322265625,-0.92547607421875,-0.5682373046875,3.1103515625,4.164581298828125,1,4.0,4.0,4.0,4.0,5.00
2021-05-13 19:12:38.554,0.0,0.0,0.0,0.0,0.0,0.0,0.0,0.0,0.0,0.0,0.0,0.0,0.0,0.0,0.0,0.0,0.0,0.0,0.0,0.0,1625.8242,1626.227,1634.2858,0.0,1137.0696,-0.23455810546875,-0.29205322265625,-0.92547607421875,-0.5682373046875,3.1103515625,4.164581298828125,1,4.0,4.0,4.0,4.0,5.00
2021-05-13 19:12:38.555,0.0,0.0,0.0,0.0,0.0,0.0,0.0,0.0,0.0,0.0,0.0,0.0,0.0,0.0,0.0,0.0,0.0,0.0,0.0,0.0,1625.8242,1626.227,1572.6373,0.0,844.94507,-0.23455810546875,-0.29205322265625,-0.92547607421875,-0.5682373046875,3.1103515625,4.164581298828125,1,4.0,4.0,4.0,4.0,5.00
2021-05-13 19:12:38.556,0.0,0.0,0.0,0.0,0.0,0.0,0.0,0.0,0.0,0.0,0.0,0.0,0.0,0.0,0.0,0.0,0.0,0.0,0.0,0.0,1625.8242,1626.227,71.72161,0.0,850.18317,-0.23455810546875,-0.29205322265625,-0.92547607421875,-0.5682373046875,3.1103515625,4.164581298828125,1,4.0,4.0,4.0,4.0,5.00
2021-05-13 19:12:38.556,0.0,0.0,0.0,0.0,0.0,0.0,0.0,0.0,0.0,0.0,0.0,0.0,0.0,0.0,0.0,0.0,0.0,0.0,0.0,0.0,1625.4213,1626.227,1239.8169,0.0,715.2015,-0.23455810546875,-0.29205322265625,-0.92547607421875,-0.5682373046875,3.1103515625,4.164581298828125,1,4.0,4.0,4.0,4.0,5.00
2021-05-13 19:12:38.556,0.0,0.0,0.0,0.0,0.0,0.0,0.0,0.0,0.0,0.0,0.0,0.0,0.0,0.0,0.0,0.0,0.0,0.0,0.0,0.0,1625.4213,1626.227,53.186813,0.0,647.9121,-0.23455810546875,-0.29205322265625,-0.92547607421875,-0.5682373046875,3.1103515625,4.164581298828125,1,4.0,4.0,4.0,4.0,5.00
2021-05-13 19:12:38.557,0.0,0.0,0.0,0.0,0.0,0.0,0.0,0.0,0.0,0.0,0.0,0.0,0.0,0.0,0.0,0.0,0.0,0.0,0.0,0.0,1625.8242,1626.227,613.663,0.0,1045.2014,-0.23455810546875,-0.29205322265625,-0.92547607421875,-0.5682373046875,3.1103515625,4.164581298828125,1,4.0,4.0,4.0,4.0,5.00
2021-05-13 19:12:38.557,0.0,0.0,0.0,0.0,0.0,0.0,0.0,0.0,0.0,0.0,0.0,0.0,0.0,0.0,0.0,0.0,0.0,0.0,0.0,0.0,1625.8242,1626.227,1586.337,0.0,1068.5714,-0.23455810546875,-0.29205322265625,-0.92547607421875,-0.5682373046875,3.1103515625,4.164581298828125,1,4.0,4.0,4.0,4.0,5.00
2021-05-13 19:12:38.557,0.0,0.0,0.0,0.0,0.0,0.0,0.0,0.0,0.0,0.0,0.0,0.0,0.0,0.0,0.0,0.0,0.0,0.0,0.0,0.0,1625.8242,1626.227,1477.5458,0.0,1003.2967,-0.23455810546875,-0.29205322265625,-0.92547607421875,-0.5682373046875,3.1103515625,4.164581298828125,1,4.0,4.0,4.0,4.0,5.00
2021-05-13 19:12:38.618,0.0,0.0,0.0,0.0,0.0,0.0,0.0,0.0,0.0,0.0,0.0,0.0,0.0,0.0,0.0,0.0,0.0,0.0,0.0,0.0,1625.8242,1626.227,1316.7766,0.0,1027.4725,-0.227294921875,-0.31427001953125,-0.92742919921875,-0.994415283203125,6.048736572265625,6.856231689453125,1,4.0,4.0,4.0,4.0,5.00
2021-05-13 19:12:38.618,0.0,0.0,0.0,0.0,0.0,0.0,0.0,0.0,0.0,0.0,0.0,0.0,0.0,0.0,0.0,0.0,0.0,0.0,0.0,0.0,1625.8242,1626.227,1468.2784,0.0,1059.3041,-0.227294921875,-0.31427001953125,-0.92742919921875,-0.994415283203125,6.048736572265625,6.856231689453125,1,4.0,4.0,4.0,4.0,5.00
2021-05-13 19:12:38.619,0.0,0.0,0.0,0.0,0.0,0.0,0.0,0.0,0.0,0.0,0.0,0.0,0.0,0.0,0.0,0.0,0.0,0.0,0.0,0.0,1625.8242,1626.227,1302.674,0.0,892.8938,-0.227294921875,-0.31427001953125,-0.92742919921875,-0.994415283203125,6.048736572265625,6.856231689453125,1,4.0,4.0,4.0,4.0,5.00
2021-05-13 19:12:38.619,0.0,0.0,0.0,0.0,0.0,0.0,0.0,0.0,0.0,0.0,0.0,0.0,0.0,0.0,0.0,0.0,0.0,0.0,0.0,0.0,1625.4213,1626.227,334.43222,0.0,741.39197,-0.227294921875,-0.31427001953125,-0.92742919921875,-0.994415283203125,6.048736572265625,6.856231689453125,1,4.0,4.0,4.0,4.0,5.00
2021-05-13 19:12:38.619,0.0,0.0,0.0,0.0,0.0,0.0,0.0,0.0,0.0,0.0,0.0,0.0,0.0,0.0,0.0,0.0,0.0,0.0,0.0,0.0,1625.8242,1626.227,0.0,0.0,895.7143,-0.227294921875,-0.31427001953125,-0.92742919921875,-0.994415283203125,6.048736572265625,6.856231689453125,1,4.0,4.0,4.0,4.0,5.00
2021-05-13 19:12:38.619,0.0,0.0,0.0,0.0,0.0,0.0,0.0,0.0,0.0,0.0,0.0,0.0,0.0,0.0,0.0,0.0,0.0,0.0,0.0,0.0,1625.8242,1626.227,240.54945,0.0,950.9158,-0.227294921875,-0.31427001953125,-0.92742919921875,-0.994415283203125,6.048736572265625,6.856231689453125,1,4.0,4.0,4.0,4.0,5.00
2021-05-13 19:12:38.620,0.0,0.0,0.0,0.0,0.0,0.0,0.0,0.0,0.0,0.0,0.0,0.0,0.0,0.0,0.0,0.0,0.0,0.0,0.0,0.0,1625.8242,1626.227,683.7729,0.0,901.3553,-0.227294921875,-0.31427001953125,-0.92742919921875,-0.994415283203125,6.048736572265625,6.856231689453125,1,4.0,4.0,4.0,4.0,5.00
2021-05-13 19:12:38.620,0.0,0.0,0.0,0.0,0.0,0.0,0.0,0.0,0.0,0.0,0.0,0.0,0.0,0.0,0.0,0.0,0.0,0.0,0.0,0.0,1625.8242,1626.227,322.74725,0.0,969.0476,-0.227294921875,-0.31427001953125,-0.92742919921875,-0.994415283203125,6.048736572265625,6.856231689453125,1,4.0,4.0,4.0,4.0,5.00
2021-05-13 19:12:38.620,0.0,0.0,0.0,0.0,0.0,0.0,0.0,0.0,0.0,0.0,0.0,0.0,0.0,0.0,0.0,0.0,0.0,0.0,0.0,0.0,1625.8242,1626.227,0.0,0.0,706.337,-0.227294921875,-0.31427001953125,-0.92742919921875,-0.994415283203125,6.048736572265625,6.856231689453125,1,4.0,4.0,4.0,4.0,5.00
2021-05-13 19:12:38.620,0.0,0.0,0.0,0.0,0.0,0.0,0.0,0.0,0.0,0.0,0.0,0.0,0.0,0.0,0.0,0.0,0.0,0.0,0.0,0.0,1625.8242,1626.227,17.326008,0.0,590.696,-0.227294921875,-0.31427001953125,-0.92742919921875,-0.994415283203125,6.048736572265625,6.856231689453125,1,4.0,4.0,4.0,4.0,5.00
2021-05-13 19:12:38.620,0.0,0.0,0.0,0.0,0.0,0.0,0.0,0.0,0.0,0.0,0.0,0.0,0.0,0.0,0.0,0.0,0.0,0.0,0.0,0.0,1625.8242,1626.227,2.8205128,0.0,773.6264,-0.227294921875,-0.31427001953125,-0.92742919921875,-0.994415283203125,6.048736572265625,6.856231689453125,1,4.0,4.0,4.0,4.0,5.00
2021-05-13 19:12:38.621,0.0,0.0,0.0,0.0,0.0,0.0,0.0,0.0,0.0,0.0,0.0,0.0,0.0,0.0,0.0,0.0,0.0,0.0,0.0,0.0,1625.8242,1626.227,0.0,0.0,731.31866,-0.227294921875,-0.31427001953125,-0.92742919921875,-0.994415283203125,6.048736572265625,6.856231689453125,1,4.0,4.0,4.0,4.0,5.00
2021-05-13 19:12:38.653,0.0,0.0,0.0,0.0,0.0,0.0,0.0,0.0,0.0,0.0,0.0,0.0,0.0,0.0,0.0,0.0,0.0,0.0,0.0,0.0,1625.4213,1626.227,0.0,0.0,753.8828,-0.227294921875,-0.31427001953125,-0.92742919921875,-0.994415283203125,6.048736572265625,6.856231689453125,1,4.0,4.0,4.0,4.0,5.00
2021-05-13 19:12:38.654,0.0,0.0,0.0,0.0,0.0,0.0,0.0,0.0,0.0,0.0,0.0,0.0,0.0,0.0,0.0,0.0,0.0,0.0,0.0,0.0,1625.8242,1626.227,0.0,0.0,655.56775,-0.227294921875,-0.31427001953125,-0.92742919921875,-0.994415283203125,6.048736572265625,6.856231689453125,1,4.0,4.0,4.0,4.0,5.00
2021-05-13 19:12:38.654,0.0,0.0,0.0,0.0,0.0,0.0,0.0,0.0,0.0,0.0,0.0,0.0,0.0,0.0,0.0,0.0,0.0,0.0,0.0,0.0,1625.4213,1626.227,0.0,0.0,567.72894,-0.227294921875,-0.31427001953125,-0.92742919921875,-0.994415283203125,6.048736572265625,6.856231689453125,1,4.0,4.0,4.0,4.0,5.00
2021-05-13 19:12:38.654,0.0,0.0,0.0,0.0,0.0,0.0,0.0,0.0,0.0,0.0,0.0,0.0,0.0,0.0,0.0,0.0,0.0,0.0,0.0,0.0,1625.8242,1626.227,0.0,0.0,645.4945,-0.227294921875,-0.31427001953125,-0.92742919921875,-0.994415283203125,6.048736572265625,6.856231689453125,1,4.0,4.0,4.0,4.0,5.00
2021-05-13 19:12:38.654,0.0,0.0,0.0,0.0,0.0,0.0,0.0,0.0,0.0,0.0,0.0,0.0,0.0,0.0,0.0,0.0,0.0,0.0,0.0,0.0,1625.8242,1626.227,0.0,0.0,606.4103,-0.227294921875,-0.31427001953125,-0.92742919921875,-0.994415283203125,6.048736572265625,6.856231689453125,1,4.0,4.0,4.0,4.0,5.00
2021-05-13 19:12:38.655,0.0,0.0,0.0,0.0,0.0,0.0,0.0,0.0,0.0,0.0,0.0,0.0,0.0,0.0,0.0,0.0,0.0,0.0,0.0,0.0,1625.8242,1626.227,0.0,0.0,474.652,-0.227294921875,-0.31427001953125,-0.92742919921875,-0.994415283203125,6.048736572265625,6.856231689453125,1,4.0,4.0,4.0,4.0,5.00
2021-05-13 19:12:38.655,0.0,0.0,0.0,0.0,0.0,0.0,0.0,0.0,0.0,0.0,0.0,0.0,0.0,0.0,0.0,0.0,0.0,0.0,0.0,0.0,1625.8242,1626.227,0.0,0.0,701.0989,-0.227294921875,-0.31427001953125,-0.92742919921875,-0.994415283203125,6.048736572265625,6.856231689453125,1,4.0,4.0,4.0,4.0,5.00
2021-05-13 19:12:38.655,0.0,0.0,0.0,0.0,0.0,0.0,0.0,0.0,0.0,0.0,0.0,0.0,0.0,0.0,0.0,0.0,0.0,0.0,0.0,0.0,1625.8242,1626.227,0.0,0.0,835.2747,-0.227294921875,-0.31427001953125,-0.92742919921875,-0.994415283203125,6.048736572265625,6.856231689453125,1,4.0,4.0,4.0,4.0,5.00
2021-05-13 19:12:38.656,0.0,0.0,0.0,0.0,0.0,0.0,0.0,0.0,0.0,0.0,0.0,0.0,0.0,0.0,0.0,0.0,0.0,0.0,0.0,0.0,1625.8242,1626.227,0.0,0.0,876.77655,-0.227294921875,-0.31427001953125,-0.92742919921875,-0.994415283203125,6.048736572265625,6.856231689453125,1,4.0,4.0,4.0,4.0,5.00
2021-05-13 19:12:38.656,0.0,0.0,0.0,0.0,0.0,0.0,0.0,0.0,0.0,0.0,0.0,0.0,0.0,0.0,0.0,0.0,0.0,0.0,0.0,0.0,1625.8242,1626.227,0.0,0.0,1141.5018,-0.227294921875,-0.31427001953125,-0.92742919921875,-0.994415283203125,6.048736572265625,6.856231689453125,1,4.0,4.0,4.0,4.0,5.00
2021-05-13 19:12:38.657,0.0,0.0,0.0,0.0,0.0,0.0,0.0,0.0,0.0,0.0,0.0,0.0,0.0,0.0,0.0,0.0,0.0,0.0,0.0,0.0,1625.8242,1626.227,0.0,0.0,881.6117,-0.227294921875,-0.31427001953125,-0.92742919921875,-0.994415283203125,6.048736572265625,6.856231689453125,1,4.0,4.0,4.0,4.0,5.00
2021-05-13 19:12:38.657,0.0,0.0,0.0,0.0,0.0,0.0,0.0,0.0,0.0,0.0,0.0,0.0,0.0,0.0,0.0,0.0,0.0,0.0,0.0,0.0,1625.8242,1626.227,0.0,0.0,835.2747,-0.227294921875,-0.31427001953125,-0.92742919921875,-0.994415283203125,6.048736572265625,6.856231689453125,1,4.0,4.0,4.0,4.0,5.00
2021-05-13 19:12:38.686,0.0,0.0,0.0,0.0,0.0,0.0,0.0,0.0,0.0,0.0,0.0,0.0,0.0,0.0,0.0,0.0,0.0,0.0,0.0,0.0,1625.8242,1626.227,0.0,0.0,1129.8169,-0.2103271484375,-0.31640625,-0.925048828125,-2.0037841796875,8.456268310546875,6.14593505859375,1,4.0,4.0,4.0,4.0,5.00
2021-05-13 19:12:38.687,0.0,0.0,0.0,0.0,0.0,0.0,0.0,0.0,0.0,0.0,0.0,0.0,0.0,0.0,0.0,0.0,0.0,0.0,0.0,0.0,1625.8242,1626.227,0.0,0.0,1193.4799,-0.2103271484375,-0.31640625,-0.925048828125,-2.0037841796875,8.456268310546875,6.14593505859375,1,4.0,4.0,4.0,4.0,5.00
2021-05-13 19:12:38.687,0.0,0.0,0.0,0.0,0.0,0.0,0.0,0.0,0.0,0.0,0.0,0.0,0.0,0.0,0.0,0.0,0.0,0.0,0.0,0.0,1625.4213,1626.227,0.0,0.0,945.2747,-0.2103271484375,-0.31640625,-0.925048828125,-2.0037841796875,8.456268310546875,6.14593505859375,1,4.0,4.0,4.0,4.0,5.00
2021-05-13 19:12:38.687,0.0,0.0,0.0,0.0,0.0,0.0,0.0,0.0,0.0,0.0,0.0,0.0,0.0,0.0,0.0,0.0,0.0,0.0,0.0,0.0,1625.4213,1626.227,0.0,0.0,517.76556,-0.2103271484375,-0.31640625,-0.925048828125,-2.0037841796875,8.456268310546875,6.14593505859375,1,4.0,4.0,4.0,4.0,5.00
2021-05-13 19:12:38.688,0.0,0.0,0.0,0.0,0.0,0.0,0.0,0.0,0.0,0.0,0.0,0.0,0.0,0.0,0.0,0.0,0.0,0.0,0.0,0.0,1625.8242,1626.227,0.0,0.0,788.5348,-0.2103271484375,-0.31640625,-0.925048828125,-2.0037841796875,8.456268310546875,6.14593505859375,1,4.0,4.0,4.0,4.0,5.00
2021-05-13 19:12:38.688,0.0,0.0,0.0,0.0,0.0,0.0,0.0,0.0,0.0,0.0,0.0,0.0,0.0,0.0,0.0,0.0,0.0,0.0,0.0,0.0,1625.8242,1626.227,0.0,0.0,1028.2784,-0.2103271484375,-0.31640625,-0.925048828125,-2.0037841796875,8.456268310546875,6.14593505859375,1,4.0,4.0,4.0,4.0,5.00
2021-05-13 19:12:38.688,0.0,0.0,0.0,0.0,0.0,0.0,0.0,0.0,0.0,0.0,0.0,0.0,0.0,0.0,0.0,0.0,0.0,0.0,0.0,0.0,1625.8242,1626.227,0.0,0.0,913.44324,-0.2103271484375,-0.31640625,-0.925048828125,-2.0037841796875,8.456268310546875,6.14593505859375,1,4.0,4.0,4.0,4.0,5.00
2021-05-13 19:12:38.688,0.0,0.0,0.0,0.0,0.0,0.0,0.0,0.0,0.0,0.0,0.0,0.0,0.0,0.0,0.0,0.0,0.0,0.0,0.0,0.0,1625.8242,1626.227,0.0,0.0,719.6337,-0.2103271484375,-0.31640625,-0.925048828125,-2.0037841796875,8.456268310546875,6.14593505859375,1,4.0,4.0,4.0,4.0,5.00
2021-05-13 19:12:38.688,0.0,0.0,0.0,0.0,0.0,0.0,0.0,0.0,0.0,0.0,0.0,0.0,0.0,0.0,0.0,0.0,0.0,0.0,0.0,0.0,1625.8242,1626.227,0.0,0.0,709.9634,-0.2103271484375,-0.31640625,-0.925048828125,-2.0037841796875,8.456268310546875,6.14593505859375,1,4.0,4.0,4.0,4.0,5.00
2021-05-13 19:12:38.689,0.0,0.0,0.0,0.0,0.0,0.0,0.0,0.0,0.0,0.0,0.0,0.0,0.0,0.0,0.0,0.0,0.0,0.0,0.0,0.0,1625.8242,1626.227,0.0,0.0,708.3516,-0.2103271484375,-0.31640625,-0.925048828125,-2.0037841796875,8.456268310546875,6.14593505859375,1,4.0,4.0,4.0,4.0,5.00
2021-05-13 19:12:38.689,0.0,0.0,0.0,0.0,0.0,0.0,0.0,0.0,0.0,0.0,0.0,0.0,0.0,0.0,0.0,0.0,0.0,0.0,0.0,0.0,1625.8242,1626.227,0.0,0.0,725.2747,-0.2103271484375,-0.31640625,-0.925048828125,-2.0037841796875,8.456268310546875,6.14593505859375,1,4.0,4.0,4.0,4.0,5.00
2021-05-13 19:12:38.689,0.0,0.0,0.0,0.0,0.0,0.0,0.0,0.0,0.0,0.0,0.0,0.0,0.0,0.0,0.0,0.0,0.0,0.0,0.0,0.0,1625.8242,1626.227,0.0,0.0,925.9341,-0.2103271484375,-0.31640625,-0.925048828125,-2.0037841796875,8.456268310546875,6.14593505859375,1,4.0,4.0,4.0,4.0,5.00
2021-05-13 19:12:38.752,0.0,0.0,0.0,0.0,0.0,0.0,0.0,0.0,0.0,0.0,0.0,0.0,0.0,0.0,0.0,0.0,0.0,0.0,0.0,0.0,1625.4213,1626.227,0.0,0.0,716.8132,-0.2030029296875,-0.31207275390625,-0.9515380859375,-5.211334228515625,11.581573486328125,7.0880126953125,1,4.0,4.0,4.0,4.0,5.00
2021-05-13 19:12:38.752,0.0,0.0,0.0,0.0,0.0,0.0,0.0,0.0,0.0,0.0,0.0,0.0,0.0,0.0,0.0,0.0,0.0,0.0,0.0,0.0,1625.8242,1626.227,0.0,0.0,589.4872,-0.2030029296875,-0.31207275390625,-0.9515380859375,-5.211334228515625,11.581573486328125,7.0880126953125,1,4.0,4.0,4.0,4.0,5.00
2021-05-13 19:12:38.753,0.0,0.0,0.0,0.0,0.0,0.0,0.0,0.0,0.0,0.0,0.0,0.0,0.0,0.0,0.0,0.0,0.0,0.0,0.0,0.0,1625.8242,1626.63,0.0,0.0,885.2381,-0.2030029296875,-0.31207275390625,-0.9515380859375,-5.211334228515625,11.581573486328125,7.0880126953125,1,4.0,4.0,4.0,4.0,5.00
2021-05-13 19:12:38.753,0.0,0.0,0.0,0.0,0.0,0.0,0.0,0.0,0.0,0.0,0.0,0.0,0.0,0.0,0.0,0.0,0.0,0.0,0.0,0.0,1625.4213,1626.63,0.0,0.0,823.5897,-0.2030029296875,-0.31207275390625,-0.9515380859375,-5.211334228515625,11.581573486328125,7.0880126953125,1,4.0,4.0,4.0,4.0,5.00
2021-05-13 19:12:38.753,0.0,0.0,0.0,0.0,0.0,0.0,0.0,0.0,0.0,0.0,0.0,0.0,0.0,0.0,0.0,0.0,0.0,0.0,0.0,0.0,1625.8242,1626.227,0.0,0.0,715.6044,-0.2030029296875,-0.31207275390625,-0.9515380859375,-5.211334228515625,11.581573486328125,7.0880126953125,1,4.0,4.0,4.0,4.0,5.00
2021-05-13 19:12:38.753,0.0,0.0,0.0,0.0,0.0,0.0,0.0,0.0,0.0,0.0,0.0,0.0,0.0,0.0,0.0,0.0,0.0,0.0,0.0,0.0,1625.8242,1626.227,0.0,0.0,817.1429,-0.2030029296875,-0.31207275390625,-0.9515380859375,-5.211334228515625,11.581573486328125,7.0880126953125,1,4.0,4.0,4.0,4.0,5.00
2021-05-13 19:12:38.753,0.0,0.0,0.0,0.0,0.0,0.0,0.0,0.0,0.0,0.0,0.0,0.0,0.0,0.0,0.0,0.0,0.0,0.0,0.0,0.0,1625.8242,1626.227,0.0,0.0,826.0073,-0.2030029296875,-0.31207275390625,-0.9515380859375,-5.211334228515625,11.581573486328125,7.0880126953125,1,4.0,4.0,4.0,4.0,5.00
2021-05-13 19:12:38.754,0.0,0.0,0.0,0.0,0.0,0.0,0.0,0.0,0.0,0.0,0.0,0.0,0.0,0.0,0.0,0.0,0.0,0.0,0.0,0.0,1625.8242,1626.227,0.0,0.0,728.9011,-0.2030029296875,-0.31207275390625,-0.9515380859375,-5.211334228515625,11.581573486328125,7.0880126953125,1,4.0,4.0,4.0,4.0,5.00
2021-05-13 19:12:38.754,0.0,0.0,0.0,0.0,0.0,0.0,0.0,0.0,0.0,0.0,0.0,0.0,0.0,0.0,0.0,0.0,0.0,0.0,0.0,0.0,1625.8242,1626.227,0.0,0.0,703.5165,-0.2030029296875,-0.31207275390625,-0.9515380859375,-5.211334228515625,11.581573486328125,7.0880126953125,1,4.0,4.0,4.0,4.0,5.00
2021-05-13 19:12:38.754,0.0,0.0,0.0,0.0,0.0,0.0,0.0,0.0,0.0,0.0,0.0,0.0,0.0,0.0,0.0,0.0,0.0,0.0,0.0,0.0,1625.8242,1626.227,0.0,0.0,780.07324,-0.2030029296875,-0.31207275390625,-0.9515380859375,-5.211334228515625,11.581573486328125,7.0880126953125,1,4.0,4.0,4.0,4.0,5.00
2021-05-13 19:12:38.755,0.0,0.0,0.0,0.0,0.0,0.0,0.0,0.0,0.0,0.0,0.0,0.0,0.0,0.0,0.0,0.0,0.0,0.0,0.0,0.0,1625.8242,1626.227,0.0,0.0,793.36993,-0.2030029296875,-0.31207275390625,-0.9515380859375,-5.211334228515625,11.581573486328125,7.0880126953125,1,4.0,4.0,4.0,4.0,5.00
2021-05-13 19:12:38.755,0.0,0.0,0.0,0.0,0.0,0.0,0.0,0.0,0.0,0.0,0.0,0.0,0.0,0.0,0.0,0.0,0.0,0.0,0.0,0.0,1625.8242,1626.227,0.0,0.0,653.95605,-0.2030029296875,-0.31207275390625,-0.9515380859375,-5.211334228515625,11.581573486328125,7.0880126953125,1,4.0,4.0,4.0,4.0,5.00
2021-05-13 19:12:38.787,0.0,0.0,0.0,0.0,0.0,0.0,0.0,0.0,0.0,0.0,0.0,0.0,0.0,0.0,0.0,0.0,0.0,0.0,0.0,0.0,1625.8242,1626.227,0.0,0.0,565.31134,-0.167236328125,-0.24652099609375,-0.94110107421875,-4.254302978515625,6.47491455078125,5.914154052734375,1,4.0,4.0,4.0,4.0,5.00
2021-05-13 19:12:38.788,0.0,0.0,0.0,0.0,0.0,0.0,0.0,0.0,0.0,0.0,0.0,0.0,0.0,0.0,0.0,0.0,0.0,0.0,0.0,0.0,1625.8242,1626.227,0.0,0.0,767.98535,-0.167236328125,-0.24652099609375,-0.94110107421875,-4.254302978515625,6.47491455078125,5.914154052734375,1,4.0,4.0,4.0,4.0,5.00
2021-05-13 19:12:38.788,0.0,0.0,0.0,0.0,0.0,0.0,0.0,0.0,0.0,0.0,0.0,0.0,0.0,0.0,0.0,0.0,0.0,0.0,0.0,0.0,1625.8242,1626.227,0.0,0.0,745.42126,-0.167236328125,-0.24652099609375,-0.94110107421875,-4.254302978515625,6.47491455078125,5.914154052734375,1,4.0,4.0,4.0,4.0,5.00
2021-05-13 19:12:38.788,0.0,0.0,0.0,0.0,0.0,0.0,0.0,0.0,0.0,0.0,0.0,0.0,0.0,0.0,0.0,0.0,0.0,0.0,0.0,0.0,1625.8242,1626.227,0.0,0.0,488.75458,-0.167236328125,-0.24652099609375,-0.94110107421875,-4.254302978515625,6.47491455078125,5.914154052734375,1,4.0,4.0,4.0,4.0,5.00
2021-05-13 19:12:38.789,0.0,0.0,0.0,0.0,0.0,0.0,0.0,0.0,0.0,0.0,0.0,0.0,0.0,0.0,0.0,0.0,0.0,0.0,0.0,0.0,1625.4213,1626.227,0.0,0.0,413.4066,-0.167236328125,-0.24652099609375,-0.94110107421875,-4.254302978515625,6.47491455078125,5.914154052734375,1,4.0,4.0,4.0,4.0,5.00
2021-05-13 19:12:38.789,0.0,0.0,0.0,0.0,0.0,0.0,0.0,0.0,0.0,0.0,0.0,0.0,0.0,0.0,0.0,0.0,0.0,0.0,0.0,0.0,1625.4213,1626.227,0.0,0.0,529.85345,-0.167236328125,-0.24652099609375,-0.94110107421875,-4.254302978515625,6.47491455078125,5.914154052734375,1,4.0,4.0,4.0,4.0,5.00
2021-05-13 19:12:38.789,0.0,0.0,0.0,0.0,0.0,0.0,0.0,0.0,0.0,0.0,0.0,0.0,0.0,0.0,0.0,0.0,0.0,0.0,0.0,0.0,1625.4213,1626.227,0.0,0.0,933.9927,-0.167236328125,-0.24652099609375,-0.94110107421875,-4.254302978515625,6.47491455078125,5.914154052734375,1,4.0,4.0,4.0,4.0,5.00
2021-05-13 19:12:38.789,0.0,0.0,0.0,0.0,0.0,0.0,0.0,0.0,0.0,0.0,0.0,0.0,0.0,0.0,0.0,0.0,0.0,0.0,0.0,0.0,1625.8242,1626.227,0.0,0.0,1106.044,-0.167236328125,-0.24652099609375,-0.94110107421875,-4.254302978515625,6.47491455078125,5.914154052734375,1,4.0,4.0,4.0,4.0,5.00
2021-05-13 19:12:38.789,0.0,0.0,0.0,0.0,0.0,0.0,0.0,0.0,0.0,0.0,0.0,0.0,0.0,0.0,0.0,0.0,0.0,0.0,0.0,0.0,1625.8242,1626.227,0.0,0.0,915.8608,-0.167236328125,-0.24652099609375,-0.94110107421875,-4.254302978515625,6.47491455078125,5.914154052734375,1,4.0,4.0,4.0,4.0,5.00
2021-05-13 19:12:38.790,0.0,0.0,0.0,0.0,0.0,0.0,0.0,0.0,0.0,0.0,0.0,0.0,0.0,0.0,0.0,0.0,0.0,0.0,0.0,0.0,1625.4213,1626.227,0.0,0.0,539.92676,-0.167236328125,-0.24652099609375,-0.94110107421875,-4.254302978515625,6.47491455078125,5.914154052734375,1,4.0,4.0,4.0,4.0,5.00
2021-05-13 19:12:38.790,0.0,0.0,0.0,0.0,0.0,0.0,0.0,0.0,0.0,0.0,0.0,0.0,0.0,0.0,0.0,0.0,0.0,0.0,0.0,0.0,1625.8242,1626.227,0.0,0.0,661.2088,-0.167236328125,-0.24652099609375,-0.94110107421875,-4.254302978515625,6.47491455078125,5.914154052734375,1,4.0,4.0,4.0,4.0,5.00
2021-05-13 19:12:38.790,0.0,0.0,0.0,0.0,0.0,0.0,0.0,0.0,0.0,0.0,0.0,0.0,0.0,0.0,0.0,0.0,0.0,0.0,0.0,0.0,1625.8242,1626.227,0.0,0.0,1182.1978,-0.167236328125,-0.24652099609375,-0.94110107421875,-4.254302978515625,6.47491455078125,5.914154052734375,1,4.0,4.0,4.0,4.0,5.00
2021-05-13 19:12:38.855,0.0,0.0,0.0,0.0,0.0,0.0,0.0,0.0,0.0,0.0,0.0,0.0,0.0,0.0,0.0,0.0,0.0,0.0,0.0,0.0,1625.8242,1626.227,0.0,0.0,822.381,-0.17626953125,-0.230712890625,-0.89898681640625,1.18133544921875,9.88433837890625,2.58697509765625,1,4.0,4.0,4.0,4.0,5.00
2021-05-13 19:12:38.855,0.0,0.0,0.0,0.0,0.0,0.0,0.0,0.0,0.0,0.0,0.0,0.0,0.0,0.0,0.0,0.0,0.0,0.0,0.0,0.0,1625.8242,1626.227,0.0,0.0,560.4762,-0.17626953125,-0.230712890625,-0.89898681640625,1.18133544921875,9.88433837890625,2.58697509765625,1,4.0,4.0,4.0,4.0,5.00
2021-05-13 19:12:38.856,0.0,0.0,0.0,0.0,0.0,0.0,0.0,0.0,0.0,0.0,0.0,0.0,0.0,0.0,0.0,0.0,0.0,0.0,0.0,0.0,1633.0769,1626.227,0.0,0.0,996.04395,-0.17626953125,-0.230712890625,-0.89898681640625,1.18133544921875,9.88433837890625,2.58697509765625,1,4.0,4.0,4.0,4.0,5.00
2021-05-13 19:12:38.856,0.0,0.0,0.0,0.0,0.0,0.0,0.0,0.0,0.0,0.0,0.0,0.0,0.0,0.0,0.0,0.0,0.0,0.0,0.0,0.0,1596.0073,1626.227,0.0,0.0,1088.3151,-0.17626953125,-0.230712890625,-0.89898681640625,1.18133544921875,9.88433837890625,2.58697509765625,1,4.0,4.0,4.0,4.0,5.00
2021-05-13 19:12:38.856,0.0,0.0,0.0,0.0,0.0,0.0,0.0,0.0,0.0,0.0,0.0,0.0,0.0,0.0,0.0,0.0,0.0,0.0,0.0,0.0,1629.4506,1626.227,0.0,0.0,886.04395,-0.17626953125,-0.230712890625,-0.89898681640625,1.18133544921875,9.88433837890625,2.58697509765625,1,4.0,4.0,4.0,4.0,5.00
2021-05-13 19:12:38.856,0.0,0.0,0.0,0.0,0.0,0.0,0.0,0.0,0.0,0.0,0.0,0.0,0.0,0.0,0.0,0.0,0.0,0.0,0.0,0.0,1633.0769,1626.227,0.0,0.0,750.65936,-0.17626953125,-0.230712890625,-0.89898681640625,1.18133544921875,9.88433837890625,2.58697509765625,1,4.0,4.0,4.0,4.0,5.00
2021-05-13 19:12:38.857,0.0,0.0,0.0,0.0,0.0,0.0,0.0,0.0,0.0,0.0,0.0,0.0,0.0,0.0,0.0,0.0,0.0,0.0,0.0,0.0,552.8205,1626.227,51.17216,0.0,529.0476,-0.17626953125,-0.230712890625,-0.89898681640625,1.18133544921875,9.88433837890625,2.58697509765625,1,4.0,4.0,4.0,4.0,5.00
2021-05-13 19:12:38.857,0.0,0.0,0.0,0.0,0.0,0.0,0.0,0.0,0.0,0.0,0.0,0.0,0.0,0.0,0.0,0.0,0.0,0.0,0.0,0.0,0.0,1626.227,0.0,0.0,445.64102,-0.17626953125,-0.230712890625,-0.89898681640625,1.18133544921875,9.88433837890625,2.58697509765625,1,4.0,4.0,4.0,4.0,5.00
2021-05-13 19:12:38.857,0.0,0.0,0.0,0.0,0.0,0.0,0.0,0.0,0.0,0.0,0.0,0.0,0.0,0.0,0.0,0.0,0.0,0.0,0.0,0.0,53.186813,1626.227,614.4689,0.0,941.6484,-0.17626953125,-0.230712890625,-0.89898681640625,1.18133544921875,9.88433837890625,2.58697509765625,1,4.0,4.0,4.0,4.0,5.00
2021-05-13 19:12:38.857,0.0,0.0,0.0,0.0,0.0,0.0,0.0,0.0,0.0,0.0,0.0,0.0,0.0,0.0,0.0,0.0,0.0,0.0,0.0,0.0,0.0,1626.227,16.923077,0.0,1069.3773,-0.17626953125,-0.230712890625,-0.89898681640625,1.18133544921875,9.88433837890625,2.58697509765625,1,4.0,4.0,4.0,4.0,5.00
2021-05-13 19:12:38.858,0.0,0.0,0.0,0.0,0.0,0.0,0.0,0.0,0.0,0.0,0.0,0.0,0.0,0.0,0.0,0.0,0.0,0.0,0.0,0.0,0.0,1626.227,1619.3773,0.0,995.2381,-0.17626953125,-0.230712890625,-0.89898681640625,1.18133544921875,9.88433837890625,2.58697509765625,1,4.0,4.0,4.0,4.0,5.00
2021-05-13 19:12:38.858,0.0,0.0,0.0,0.0,0.0,0.0,0.0,0.0,0.0,0.0,0.0,0.0,0.0,0.0,0.0,0.0,0.0,0.0,0.0,0.0,0.0,1626.227,1601.2454,0.0,1053.2601,-0.17626953125,-0.230712890625,-0.89898681640625,1.18133544921875,9.88433837890625,2.58697509765625,1,4.0,4.0,4.0,4.0,5.00
2021-05-13 19:12:38.886,0.0,0.0,0.0,0.0,0.0,0.0,0.0,0.0,0.0,0.0,0.0,0.0,0.0,0.0,0.0,0.0,0.0,0.0,0.0,0.0,0.0,1626.227,1633.0769,0.0,1089.9268,-0.17626953125,-0.230712890625,-0.89898681640625,1.18133544921875,9.88433837890625,2.58697509765625,1,4.0,4.0,4.0,4.0,5.00
2021-05-13 19:12:38.887,0.0,0.0,0.0,0.0,0.0,0.0,0.0,0.0,0.0,0.0,0.0,0.0,0.0,0.0,0.0,0.0,0.0,0.0,0.0,0.0,0.0,1626.227,1626.227,0.0,960.18317,-0.17626953125,-0.230712890625,-0.89898681640625,1.18133544921875,9.88433837890625,2.58697509765625,1,4.0,4.0,4.0,4.0,5.00
2021-05-13 19:12:38.887,0.0,0.0,0.0,0.0,0.0,0.0,0.0,0.0,0.0,0.0,0.0,0.0,0.0,0.0,0.0,0.0,0.0,0.0,0.0,0.0,0.0,1626.227,1626.227,0.0,993.22345,-0.17626953125,-0.230712890625,-0.89898681640625,1.18133544921875,9.88433837890625,2.58697509765625,1,4.0,4.0,4.0,4.0,5.00
2021-05-13 19:12:38.887,0.0,0.0,0.0,0.0,0.0,0.0,0.0,0.0,0.0,0.0,0.0,0.0,0.0,0.0,0.0,0.0,0.0,0.0,0.0,0.0,0.0,1626.227,1626.227,0.0,1055.6776,-0.17626953125,-0.230712890625,-0.89898681640625,1.18133544921875,9.88433837890625,2.58697509765625,1,4.0,4.0,4.0,4.0,5.00
2021-05-13 19:12:38.888,0.0,0.0,0.0,0.0,0.0,0.0,0.0,0.0,0.0,0.0,0.0,0.0,0.0,0.0,0.0,0.0,0.0,0.0,0.0,0.0,0.0,1626.227,1626.227,0.0,680.14655,-0.17626953125,-0.230712890625,-0.89898681640625,1.18133544921875,9.88433837890625,2.58697509765625,1,4.0,4.0,4.0,4.0,5.00
2021-05-13 19:12:38.888,0.0,0.0,0.0,0.0,0.0,0.0,0.0,0.0,0.0,0.0,0.0,0.0,0.0,0.0,0.0,0.0,0.0,0.0,0.0,0.0,0.0,1626.63,1626.227,0.0,592.71063,-0.17626953125,-0.230712890625,-0.89898681640625,1.18133544921875,9.88433837890625,2.58697509765625,1,4.0,4.0,4.0,4.0,5.00
2021-05-13 19:12:38.888,0.0,0.0,0.0,0.0,0.0,0.0,0.0,0.0,0.0,0.0,0.0,0.0,0.0,0.0,0.0,0.0,0.0,0.0,0.0,0.0,0.0,1626.63,1626.227,0.0,996.04395,-0.17626953125,-0.230712890625,-0.89898681640625,1.18133544921875,9.88433837890625,2.58697509765625,1,4.0,4.0,4.0,4.0,5.00
2021-05-13 19:12:38.888,0.0,0.0,0.0,0.0,0.0,0.0,0.0,0.0,0.0,0.0,0.0,0.0,0.0,0.0,0.0,0.0,0.0,0.0,0.0,0.0,0.0,1626.227,1626.227,0.0,1135.4579,-0.17626953125,-0.230712890625,-0.89898681640625,1.18133544921875,9.88433837890625,2.58697509765625,1,4.0,4.0,4.0,4.0,5.00
2021-05-13 19:12:38.889,0.0,0.0,0.0,0.0,0.0,0.0,0.0,0.0,0.0,0.0,0.0,0.0,0.0,0.0,0.0,0.0,0.0,0.0,0.0,0.0,0.0,1626.227,1626.227,0.0,918.2784,-0.17626953125,-0.230712890625,-0.89898681640625,1.18133544921875,9.88433837890625,2.58697509765625,1,4.0,4.0,4.0,4.0,5.00
2021-05-13 19:12:38.889,0.0,0.0,0.0,0.0,0.0,0.0,0.0,0.0,0.0,0.0,0.0,0.0,0.0,0.0,0.0,0.0,0.0,0.0,0.0,0.0,0.0,1626.227,1626.227,0.0,828.022,-0.17626953125,-0.230712890625,-0.89898681640625,1.18133544921875,9.88433837890625,2.58697509765625,1,4.0,4.0,4.0,4.0,5.00
2021-05-13 19:12:38.889,0.0,0.0,0.0,0.0,0.0,0.0,0.0,0.0,0.0,0.0,0.0,0.0,0.0,0.0,0.0,0.0,0.0,0.0,0.0,0.0,0.0,1626.63,1626.227,0.0,894.5055,-0.17626953125,-0.230712890625,-0.89898681640625,1.18133544921875,9.88433837890625,2.58697509765625,1,4.0,4.0,4.0,4.0,5.00
2021-05-13 19:12:38.889,0.0,0.0,0.0,0.0,0.0,0.0,0.0,0.0,0.0,0.0,0.0,0.0,0.0,0.0,0.0,0.0,0.0,0.0,0.0,0.0,0.0,1627.033,1626.227,0.0,783.2967,-0.17626953125,-0.230712890625,-0.89898681640625,1.18133544921875,9.88433837890625,2.58697509765625,1,4.0,4.0,4.0,4.0,5.00
2021-05-13 19:12:38.946,0.0,0.0,0.0,0.0,0.0,0.0,0.0,0.0,0.0,0.0,0.0,0.0,0.0,0.0,0.0,0.0,0.0,0.0,0.0,0.0,0.0,1574.249,1626.227,0.0,904.57874,-0.13543701171875,-0.26708984375,-0.90679931640625,6.721649169921875,3.132781982421875,2.056121826171875,1,4.0,4.0,4.0,4.0,5.00
2021-05-13 19:12:38.946,0.0,0.0,0.0,0.0,0.0,0.0,0.0,0.0,0.0,0.0,0.0,0.0,0.0,0.0,0.0,0.0,0.0,0.0,0.0,0.0,0.0,90.65934,1626.227,0.0,1046.0073,-0.13543701171875,-0.26708984375,-0.90679931640625,6.721649169921875,3.132781982421875,2.056121826171875,1,4.0,4.0,4.0,4.0,5.00
2021-05-13 19:12:38.947,0.0,0.0,0.0,0.0,0.0,0.0,0.0,0.0,0.0,0.0,0.0,0.0,0.0,0.0,0.0,0.0,0.0,0.0,0.0,0.0,0.0,981.53845,1626.227,0.0,690.6227,-0.13543701171875,-0.26708984375,-0.90679931640625,6.721649169921875,3.132781982421875,2.056121826171875,1,4.0,4.0,4.0,4.0,5.00
2021-05-13 19:12:38.947,0.0,0.0,0.0,0.0,0.0,0.0,0.0,0.0,0.0,0.0,0.0,0.0,0.0,0.0,0.0,0.0,0.0,0.0,0.0,0.0,0.0,0.0,1626.227,0.0,647.9121,-0.13543701171875,-0.26708984375,-0.90679931640625,6.721649169921875,3.132781982421875,2.056121826171875,1,4.0,4.0,4.0,4.0,5.00
2021-05-13 19:12:38.947,0.0,0.0,0.0,0.0,0.0,0.0,0.0,0.0,0.0,0.0,0.0,0.0,0.0,0.0,0.0,0.0,0.0,0.0,0.0,0.0,0.0,12.893773,1626.227,0.0,1005.31134,-0.13543701171875,-0.26708984375,-0.90679931640625,6.721649169921875,3.132781982421875,2.056121826171875,1,4.0,4.0,4.0,4.0,5.00
2021-05-13 19:12:38.947,0.0,0.0,0.0,0.0,0.0,0.0,0.0,0.0,0.0,0.0,0.0,0.0,0.0,0.0,0.0,0.0,0.0,0.0,0.0,0.0,0.0,22.161173,1626.227,0.0,916.6667,-0.13543701171875,-0.26708984375,-0.90679931640625,6.721649169921875,3.132781982421875,2.056121826171875,1,4.0,4.0,4.0,4.0,5.00
2021-05-13 19:12:38.948,0.0,0.0,0.0,0.0,0.0,0.0,0.0,0.0,0.0,0.0,0.0,0.0,0.0,0.0,0.0,0.0,0.0,0.0,0.0,0.0,0.0,0.0,1626.63,0.0,952.1245,-0.13543701171875,-0.26708984375,-0.90679931640625,6.721649169921875,3.132781982421875,2.056121826171875,1,4.0,4.0,4.0,4.0,5.00
2021-05-13 19:12:38.948,0.0,0.0,0.0,0.0,0.0,0.0,0.0,0.0,0.0,0.0,0.0,0.0,0.0,0.0,0.0,0.0,0.0,0.0,0.0,0.0,0.0,0.0,1626.227,0.0,1035.5311,-0.13543701171875,-0.26708984375,-0.90679931640625,6.721649169921875,3.132781982421875,2.056121826171875,1,4.0,4.0,4.0,4.0,5.00
2021-05-13 19:12:38.948,0.0,0.0,0.0,0.0,0.0,0.0,0.0,0.0,0.0,0.0,0.0,0.0,0.0,0.0,0.0,0.0,0.0,0.0,0.0,0.0,0.0,0.0,1626.227,0.0,1044.3956,-0.13543701171875,-0.26708984375,-0.90679931640625,6.721649169921875,3.132781982421875,2.056121826171875,1,4.0,4.0,4.0,4.0,5.00
2021-05-13 19:12:38.948,0.0,0.0,0.0,0.0,0.0,0.0,0.0,0.0,0.0,0.0,0.0,0.0,0.0,0.0,0.0,0.0,0.0,0.0,0.0,0.0,0.0,0.0,1626.227,0.0,881.2088,-0.13543701171875,-0.26708984375,-0.90679931640625,6.721649169921875,3.132781982421875,2.056121826171875,1,4.0,4.0,4.0,4.0,5.00
2021-05-13 19:12:38.948,0.0,0.0,0.0,0.0,0.0,0.0,0.0,0.0,0.0,0.0,0.0,0.0,0.0,0.0,0.0,0.0,0.0,0.0,0.0,0.0,0.0,0.0,1626.63,0.0,813.1135,-0.13543701171875,-0.26708984375,-0.90679931640625,6.721649169921875,3.132781982421875,2.056121826171875,1,4.0,4.0,4.0,4.0,5.00
2021-05-13 19:12:38.948,0.0,0.0,0.0,0.0,0.0,0.0,0.0,0.0,0.0,0.0,0.0,0.0,0.0,0.0,0.0,0.0,0.0,0.0,0.0,0.0,0.0,0.0,1626.63,0.0,621.31866,-0.13543701171875,-0.26708984375,-0.90679931640625,6.721649169921875,3.132781982421875,2.056121826171875,1,4.0,4.0,4.0,4.0,5.00
2021-05-13 19:12:38.969,0.0,0.0,0.0,0.0,0.0,0.0,0.0,0.0,0.0,0.0,0.0,0.0,0.0,0.0,0.0,0.0,0.0,0.0,0.0,0.0,0.0,0.0,1626.227,0.0,574.57874,-0.1077880859375,-0.296630859375,-0.9300537109375,4.35150146484375,-1.173858642578125,-1.30096435546875,1,4.0,4.0,4.0,4.0,5.00
2021-05-13 19:12:38.970,0.0,0.0,0.0,0.0,0.0,0.0,0.0,0.0,0.0,0.0,0.0,0.0,0.0,0.0,0.0,0.0,0.0,0.0,0.0,0.0,0.0,0.0,1626.227,0.0,951.31866,-0.1077880859375,-0.296630859375,-0.9300537109375,4.35150146484375,-1.173858642578125,-1.30096435546875,1,4.0,4.0,4.0,4.0,5.00
2021-05-13 19:12:38.971,0.0,0.0,0.0,0.0,0.0,0.0,0.0,0.0,0.0,0.0,0.0,0.0,0.0,0.0,0.0,0.0,0.0,0.0,0.0,0.0,0.0,0.0,1626.227,0.0,821.5751,-0.1077880859375,-0.296630859375,-0.9300537109375,4.35150146484375,-1.173858642578125,-1.30096435546875,1,4.0,4.0,4.0,4.0,5.00
2021-05-13 19:12:38.971,0.0,0.0,0.0,0.0,0.0,0.0,0.0,0.0,0.0,0.0,0.0,0.0,0.0,0.0,0.0,0.0,0.0,0.0,0.0,0.0,0.0,0.0,1626.227,0.0,477.0696,-0.1077880859375,-0.296630859375,-0.9300537109375,4.35150146484375,-1.173858642578125,-1.30096435546875,1,4.0,4.0,4.0,4.0,5.00
2021-05-13 19:12:38.972,0.0,0.0,0.0,0.0,0.0,0.0,0.0,0.0,0.0,0.0,0.0,0.0,0.0,0.0,0.0,0.0,0.0,0.0,0.0,0.0,0.0,0.0,1626.63,0.0,628.97437,-0.1077880859375,-0.296630859375,-0.9300537109375,4.35150146484375,-1.173858642578125,-1.30096435546875,1,4.0,4.0,4.0,4.0,5.00
2021-05-13 19:12:38.972,0.0,0.0,0.0,0.0,0.0,0.0,0.0,0.0,0.0,0.0,0.0,0.0,0.0,0.0,0.0,0.0,0.0,0.0,0.0,0.0,0.0,0.0,1626.227,0.0,817.9487,-0.1077880859375,-0.296630859375,-0.9300537109375,4.35150146484375,-1.173858642578125,-1.30096435546875,1,4.0,4.0,4.0,4.0,5.00
2021-05-13 19:12:38.972,0.0,0.0,0.0,0.0,0.0,0.0,0.0,0.0,0.0,0.0,0.0,0.0,0.0,0.0,0.0,0.0,0.0,0.0,0.0,0.0,0.0,0.0,1626.227,0.0,516.9597,-0.1077880859375,-0.296630859375,-0.9300537109375,4.35150146484375,-1.173858642578125,-1.30096435546875,1,4.0,4.0,4.0,4.0,5.00
2021-05-13 19:12:38.972,0.0,0.0,0.0,0.0,0.0,0.0,0.0,0.0,0.0,0.0,0.0,0.0,0.0,0.0,0.0,0.0,0.0,0.0,0.0,0.0,0.0,0.0,1626.227,0.0,251.42857,-0.1077880859375,-0.296630859375,-0.9300537109375,4.35150146484375,-1.173858642578125,-1.30096435546875,1,4.0,4.0,4.0,4.0,5.00
2021-05-13 19:12:38.973,0.0,0.0,0.0,0.0,0.0,0.0,0.0,0.0,0.0,0.0,0.0,0.0,0.0,0.0,0.0,0.0,0.0,0.0,0.0,0.0,0.0,0.0,1626.227,0.0,415.0183,-0.1077880859375,-0.296630859375,-0.9300537109375,4.35150146484375,-1.173858642578125,-1.30096435546875,1,4.0,4.0,4.0,4.0,5.00
2021-05-13 19:12:38.973,0.0,0.0,0.0,0.0,0.0,0.0,0.0,0.0,0.0,0.0,0.0,0.0,0.0,0.0,0.0,0.0,0.0,0.0,0.0,0.0,0.0,0.0,1626.227,0.0,462.56412,-0.1077880859375,-0.296630859375,-0.9300537109375,4.35150146484375,-1.173858642578125,-1.30096435546875,1,4.0,4.0,4.0,4.0,5.00
2021-05-13 19:12:38.973,0.0,0.0,0.0,0.0,0.0,0.0,0.0,0.0,0.0,0.0,0.0,0.0,0.0,0.0,0.0,0.0,0.0,0.0,0.0,0.0,0.0,0.0,1626.227,0.0,718.8278,-0.1077880859375,-0.296630859375,-0.9300537109375,4.35150146484375,-1.173858642578125,-1.30096435546875,1,4.0,4.0,4.0,4.0,5.00
2021-05-13 19:12:38.973,0.0,0.0,0.0,0.0,0.0,0.0,0.0,0.0,0.0,0.0,0.0,0.0,0.0,0.0,0.0,0.0,0.0,0.0,0.0,0.0,0.0,0.0,1626.227,0.0,1070.1831,-0.1077880859375,-0.296630859375,-0.9300537109375,4.35150146484375,-1.173858642578125,-1.30096435546875,1,4.0,4.0,4.0,4.0,5.00
2021-05-13 19:12:39.037,0.0,0.0,0.0,0.0,0.0,0.0,0.0,0.0,0.0,0.0,0.0,0.0,0.0,0.0,0.0,0.0,0.0,0.0,0.0,0.0,0.0,0.0,1626.227,0.0,931.5751,-0.1624755859375,-0.26531982421875,-0.94720458984375,-5.435638427734375,-0.321502685546875,-6.916046142578125,1,4.0,4.0,4.0,4.0,5.00
2021-05-13 19:12:39.037,0.0,0.0,0.0,0.0,0.0,0.0,0.0,0.0,0.0,0.0,0.0,0.0,0.0,0.0,0.0,0.0,0.0,0.0,0.0,0.0,0.0,0.0,1626.227,0.0,775.64105,-0.1624755859375,-0.26531982421875,-0.94720458984375,-5.435638427734375,-0.321502685546875,-6.916046142578125,1,4.0,4.0,4.0,4.0,5.00
2021-05-13 19:12:39.037,0.0,0.0,0.0,0.0,0.0,0.0,0.0,0.0,0.0,0.0,0.0,0.0,0.0,0.0,0.0,0.0,0.0,0.0,0.0,0.0,0.0,0.0,1626.227,0.0,807.0696,-0.1624755859375,-0.26531982421875,-0.94720458984375,-5.435638427734375,-0.321502685546875,-6.916046142578125,1,4.0,4.0,4.0,4.0,5.00
2021-05-13 19:12:39.038,0.0,0.0,0.0,0.0,0.0,0.0,0.0,0.0,0.0,0.0,0.0,0.0,0.0,0.0,0.0,0.0,0.0,0.0,0.0,0.0,0.0,0.0,1626.227,0.0,980.32965,-0.1624755859375,-0.26531982421875,-0.94720458984375,-5.435638427734375,-0.321502685546875,-6.916046142578125,1,4.0,4.0,4.0,4.0,5.00
2021-05-13 19:12:39.038,0.0,0.0,0.0,0.0,0.0,0.0,0.0,0.0,0.0,0.0,0.0,0.0,0.0,0.0,0.0,0.0,0.0,0.0,0.0,0.0,0.0,0.0,1626.227,0.0,933.5897,-0.1624755859375,-0.26531982421875,-0.94720458984375,-5.435638427734375,-0.321502685546875,-6.916046142578125,1,4.0,4.0,4.0,4.0,5.00
2021-05-13 19:12:39.038,0.0,0.0,0.0,0.0,0.0,0.0,0.0,0.0,0.0,0.0,0.0,0.0,0.0,0.0,0.0,0.0,0.0,0.0,0.0,0.0,0.0,0.0,1626.227,0.0,626.9597,-0.1624755859375,-0.26531982421875,-0.94720458984375,-5.435638427734375,-0.321502685546875,-6.916046142578125,1,4.0,4.0,4.0,4.0,5.00
2021-05-13 19:12:39.038,0.0,0.0,0.0,0.0,0.0,0.0,0.0,0.0,0.0,0.0,0.0,0.0,0.0,0.0,0.0,0.0,0.0,0.0,0.0,0.0,0.0,0.0,1626.227,51.978024,560.87915,-0.1624755859375,-0.26531982421875,-0.94720458984375,-5.435638427734375,-0.321502685546875,-6.916046142578125,1,4.0,4.0,4.0,4.0,5.00
2021-05-13 19:12:39.039,0.0,0.0,0.0,0.0,0.0,0.0,0.0,0.0,0.0,0.0,0.0,0.0,0.0,0.0,0.0,0.0,0.0,0.0,0.0,0.0,0.0,0.0,1626.227,0.0,935.6044,-0.1624755859375,-0.26531982421875,-0.94720458984375,-5.435638427734375,-0.321502685546875,-6.916046142578125,1,4.0,4.0,4.0,4.0,5.00
2021-05-13 19:12:39.039,0.0,0.0,0.0,0.0,0.0,0.0,0.0,0.0,0.0,0.0,0.0,0.0,0.0,0.0,0.0,0.0,0.0,0.0,0.0,0.0,0.0,0.0,1626.227,216.77655,1042.381,-0.1624755859375,-0.26531982421875,-0.94720458984375,-5.435638427734375,-0.321502685546875,-6.916046142578125,1,4.0,4.0,4.0,4.0,5.00
2021-05-13 19:12:39.039,0.0,0.0,0.0,0.0,0.0,0.0,0.0,0.0,0.0,0.0,0.0,0.0,0.0,0.0,0.0,0.0,0.0,0.0,0.0,0.0,0.0,0.0,1626.227,1394.9451,1031.5018,-0.1624755859375,-0.26531982421875,-0.94720458984375,-5.435638427734375,-0.321502685546875,-6.916046142578125,1,4.0,4.0,4.0,4.0,5.00
2021-05-13 19:12:39.039,0.0,0.0,0.0,0.0,0.0,0.0,0.0,0.0,0.0,0.0,0.0,0.0,0.0,0.0,0.0,0.0,0.0,0.0,0.0,0.0,0.0,0.0,1626.227,43.919415,1113.2968,-0.1624755859375,-0.26531982421875,-0.94720458984375,-5.435638427734375,-0.321502685546875,-6.916046142578125,1,4.0,4.0,4.0,4.0,5.00
2021-05-13 19:12:39.040,0.0,0.0,0.0,0.0,0.0,0.0,0.0,0.0,0.0,0.0,0.0,0.0,0.0,0.0,0.0,0.0,0.0,0.0,0.0,0.0,0.0,0.0,1625.8242,1574.249,1037.9487,-0.1624755859375,-0.26531982421875,-0.94720458984375,-5.435638427734375,-0.321502685546875,-6.916046142578125,1,4.0,4.0,4.0,4.0,5.00
2021-05-13 19:12:39.070,0.0,0.0,0.0,0.0,0.0,0.0,0.0,0.0,0.0,0.0,0.0,0.0,0.0,0.0,0.0,0.0,0.0,0.0,0.0,0.0,0.0,0.0,1626.227,1637.5092,988.7912,-0.1568603515625,-0.20916748046875,-0.91546630859375,-1.2860107421875,2.392578125,-0.216827392578125,1,4.0,4.0,4.0,4.0,5.00
2021-05-13 19:12:39.071,0.0,0.0,0.0,0.0,0.0,0.0,0.0,0.0,0.0,0.0,0.0,0.0,0.0,0.0,0.0,0.0,0.0,0.0,0.0,0.0,0.0,0.0,1626.227,1626.227,1119.3407,-0.1568603515625,-0.20916748046875,-0.91546630859375,-1.2860107421875,2.392578125,-0.216827392578125,1,4.0,4.0,4.0,4.0,5.00
2021-05-13 19:12:39.071,0.0,0.0,0.0,0.0,0.0,0.0,0.0,0.0,0.0,0.0,0.0,0.0,0.0,0.0,0.0,0.0,0.0,0.0,0.0,0.0,0.0,0.0,1626.227,1626.227,970.65936,-0.1568603515625,-0.20916748046875,-0.91546630859375,-1.2860107421875,2.392578125,-0.216827392578125,1,4.0,4.0,4.0,4.0,5.00
2021-05-13 19:12:39.071,0.0,0.0,0.0,0.0,0.0,0.0,0.0,0.0,0.0,0.0,0.0,0.0,0.0,0.0,0.0,0.0,0.0,0.0,0.0,0.0,0.0,0.0,1626.227,1626.227,894.10254,-0.1568603515625,-0.20916748046875,-0.91546630859375,-1.2860107421875,2.392578125,-0.216827392578125,1,4.0,4.0,4.0,4.0,5.00
2021-05-13 19:12:39.072,0.0,0.0,0.0,0.0,0.0,0.0,0.0,0.0,0.0,0.0,0.0,0.0,0.0,0.0,0.0,0.0,0.0,0.0,0.0,0.0,0.0,0.0,1625.8242,1626.227,792.5641,-0.1568603515625,-0.20916748046875,-0.91546630859375,-1.2860107421875,2.392578125,-0.216827392578125,1,4.0,4.0,4.0,4.0,5.00
2021-05-13 19:12:39.073,0.0,0.0,0.0,0.0,0.0,0.0,0.0,0.0,0.0,0.0,0.0,0.0,0.0,0.0,0.0,0.0,0.0,0.0,0.0,0.0,0.0,0.0,1626.227,1626.227,797.3993,-0.1568603515625,-0.20916748046875,-0.91546630859375,-1.2860107421875,2.392578125,-0.216827392578125,1,4.0,4.0,4.0,4.0,5.00
2021-05-13 19:12:39.073,0.0,0.0,0.0,0.0,0.0,0.0,0.0,0.0,0.0,0.0,0.0,0.0,0.0,0.0,0.0,0.0,0.0,0.0,0.0,0.0,0.0,0.0,1626.227,1626.227,786.52014,-0.1568603515625,-0.20916748046875,-0.91546630859375,-1.2860107421875,2.392578125,-0.216827392578125,1,4.0,4.0,4.0,4.0,5.00
2021-05-13 19:12:39.073,0.0,0.0,0.0,0.0,0.0,0.0,0.0,0.0,0.0,0.0,0.0,0.0,0.0,0.0,0.0,0.0,0.0,0.0,0.0,0.0,0.0,0.0,1626.227,1626.227,950.5128,-0.1568603515625,-0.20916748046875,-0.91546630859375,-1.2860107421875,2.392578125,-0.216827392578125,1,4.0,4.0,4.0,4.0,5.00
2021-05-13 19:12:39.073,0.0,0.0,0.0,0.0,0.0,0.0,0.0,0.0,0.0,0.0,0.0,0.0,0.0,0.0,0.0,0.0,0.0,0.0,0.0,0.0,0.0,0.0,1626.227,1626.227,1139.4872,-0.1568603515625,-0.20916748046875,-0.91546630859375,-1.2860107421875,2.392578125,-0.216827392578125,1,4.0,4.0,4.0,4.0,5.00
2021-05-13 19:12:39.074,0.0,0.0,0.0,0.0,0.0,0.0,0.0,0.0,0.0,0.0,0.0,0.0,0.0,0.0,0.0,0.0,0.0,0.0,0.0,0.0,0.0,0.0,1626.227,1626.227,677.72894,-0.1568603515625,-0.20916748046875,-0.91546630859375,-1.2860107421875,2.392578125,-0.216827392578125,1,4.0,4.0,4.0,4.0,5.00
2021-05-13 19:12:39.074,0.0,0.0,0.0,0.0,0.0,0.0,0.0,0.0,0.0,0.0,0.0,0.0,0.0,0.0,0.0,0.0,0.0,0.0,0.0,0.0,0.0,0.0,1626.227,1625.8242,570.9524,-0.1568603515625,-0.20916748046875,-0.91546630859375,-1.2860107421875,2.392578125,-0.216827392578125,1,4.0,4.0,4.0,4.0,5.00
2021-05-13 19:12:39.074,0.0,0.0,0.0,0.0,0.0,0.0,0.0,0.0,0.0,0.0,0.0,0.0,0.0,0.0,0.0,0.0,0.0,0.0,0.0,0.0,0.0,0.0,1626.227,1625.8242,981.9414,-0.1568603515625,-0.20916748046875,-0.91546630859375,-1.2860107421875,2.392578125,-0.216827392578125,1,4.0,4.0,4.0,4.0,5.00
2021-05-13 19:12:39.136,0.0,0.0,0.0,0.0,0.0,0.0,0.0,0.0,0.0,0.0,0.0,0.0,0.0,0.0,0.0,0.0,0.0,0.0,0.0,0.0,0.0,0.0,1626.227,1626.227,887.25275,-0.1568603515625,-0.20916748046875,-0.91546630859375,-1.2860107421875,2.392578125,-0.216827392578125,1,4.0,4.0,4.0,4.0,5.00
2021-05-13 19:12:39.137,0.0,0.0,0.0,0.0,0.0,0.0,0.0,0.0,0.0,0.0,0.0,0.0,0.0,0.0,0.0,0.0,0.0,0.0,0.0,0.0,0.0,0.0,1626.227,1626.227,716.4103,-0.1568603515625,-0.20916748046875,-0.91546630859375,-1.2860107421875,2.392578125,-0.216827392578125,1,4.0,4.0,4.0,4.0,5.00
2021-05-13 19:12:39.137,0.0,0.0,0.0,0.0,0.0,0.0,0.0,0.0,0.0,0.0,0.0,0.0,0.0,0.0,0.0,0.0,0.0,0.0,0.0,0.0,0.0,0.0,1626.227,1625.8242,954.5421,-0.1568603515625,-0.20916748046875,-0.91546630859375,-1.2860107421875,2.392578125,-0.216827392578125,1,4.0,4.0,4.0,4.0,5.00
2021-05-13 19:12:39.137,0.0,0.0,0.0,0.0,0.0,0.0,0.0,0.0,0.0,0.0,0.0,0.0,0.0,0.0,0.0,0.0,0.0,0.0,0.0,0.0,0.0,0.0,1626.227,1625.8242,994.0293,-0.1568603515625,-0.20916748046875,-0.91546630859375,-1.2860107421875,2.392578125,-0.216827392578125,1,4.0,4.0,4.0,4.0,5.00
2021-05-13 19:12:39.137,0.0,0.0,0.0,0.0,0.0,0.0,0.0,0.0,0.0,0.0,0.0,0.0,0.0,0.0,0.0,0.0,0.0,0.0,0.0,0.0,0.0,0.0,1626.227,1626.227,736.9597,-0.1568603515625,-0.20916748046875,-0.91546630859375,-1.2860107421875,2.392578125,-0.216827392578125,1,4.0,4.0,4.0,4.0,5.00
2021-05-13 19:12:39.138,0.0,0.0,0.0,0.0,0.0,0.0,0.0,0.0,0.0,0.0,0.0,0.0,0.0,0.0,0.0,0.0,0.0,0.0,0.0,0.0,0.0,0.0,1626.227,1626.227,859.0476,-0.1568603515625,-0.20916748046875,-0.91546630859375,-1.2860107421875,2.392578125,-0.216827392578125,1,4.0,4.0,4.0,4.0,5.00
2021-05-13 19:12:39.138,0.0,0.0,0.0,0.0,0.0,0.0,0.0,0.0,0.0,0.0,0.0,0.0,0.0,0.0,0.0,0.0,0.0,0.0,0.0,0.0,0.0,0.0,1626.227,1626.227,1061.7216,-0.1568603515625,-0.20916748046875,-0.91546630859375,-1.2860107421875,2.392578125,-0.216827392578125,1,4.0,4.0,4.0,4.0,5.00
2021-05-13 19:12:39.138,0.0,0.0,0.0,0.0,0.0,0.0,0.0,0.0,0.0,0.0,0.0,0.0,0.0,0.0,0.0,0.0,0.0,0.0,0.0,0.0,0.0,0.0,1626.227,1626.227,837.28937,-0.1568603515625,-0.20916748046875,-0.91546630859375,-1.2860107421875,2.392578125,-0.216827392578125,1,4.0,4.0,4.0,4.0,5.00
2021-05-13 19:12:39.138,0.0,0.0,0.0,0.0,0.0,0.0,0.0,0.0,0.0,0.0,0.0,0.0,0.0,0.0,0.0,0.0,0.0,0.0,0.0,0.0,0.0,0.0,1626.227,1626.227,911.8315,-0.1568603515625,-0.20916748046875,-0.91546630859375,-1.2860107421875,2.392578125,-0.216827392578125,1,4.0,4.0,4.0,4.0,5.00
2021-05-13 19:12:39.138,0.0,0.0,0.0,0.0,0.0,0.0,0.0,0.0,0.0,0.0,0.0,0.0,0.0,0.0,0.0,0.0,0.0,0.0,0.0,0.0,0.0,0.0,1626.227,1626.227,1018.20514,-0.1568603515625,-0.20916748046875,-0.91546630859375,-1.2860107421875,2.392578125,-0.216827392578125,1,4.0,4.0,4.0,4.0,5.00
2021-05-13 19:12:39.139,0.0,0.0,0.0,0.0,0.0,0.0,0.0,0.0,0.0,0.0,0.0,0.0,0.0,0.0,0.0,0.0,0.0,0.0,0.0,0.0,0.0,0.0,1626.227,1626.227,838.0952,-0.1568603515625,-0.20916748046875,-0.91546630859375,-1.2860107421875,2.392578125,-0.216827392578125,1,4.0,4.0,4.0,4.0,5.00
2021-05-13 19:12:39.139,0.0,0.0,0.0,0.0,0.0,0.0,0.0,0.0,0.0,0.0,0.0,0.0,0.0,0.0,0.0,0.0,0.0,0.0,0.0,0.0,0.0,0.0,1626.227,1626.227,707.5458,-0.1568603515625,-0.20916748046875,-0.91546630859375,-1.2860107421875,2.392578125,-0.216827392578125,1,4.0,4.0,4.0,4.0,5.00
2021-05-13 19:12:39.170,0.0,0.0,0.0,0.0,0.0,0.0,0.0,0.0,0.0,0.0,0.0,0.0,0.0,0.0,0.0,0.0,0.0,0.0,0.0,0.0,0.0,0.0,1626.227,1626.227,765.9707,-0.17864990234375,-0.25738525390625,-0.95538330078125,-0.112152099609375,6.81884765625,1.89910888671875,1,4.0,4.0,4.0,4.0,5.00
2021-05-13 19:12:39.171,0.0,0.0,0.0,0.0,0.0,0.0,0.0,0.0,0.0,0.0,0.0,0.0,0.0,0.0,0.0,0.0,0.0,0.0,0.0,0.0,0.0,0.0,1626.227,1626.227,925.12823,-0.17864990234375,-0.25738525390625,-0.95538330078125,-0.112152099609375,6.81884765625,1.89910888671875,1,4.0,4.0,4.0,4.0,5.00
2021-05-13 19:12:39.171,0.0,0.0,0.0,0.0,0.0,0.0,0.0,0.0,0.0,0.0,0.0,0.0,0.0,0.0,0.0,0.0,0.0,0.0,0.0,0.0,0.0,0.0,1626.227,1626.227,1115.7142,-0.17864990234375,-0.25738525390625,-0.95538330078125,-0.112152099609375,6.81884765625,1.89910888671875,1,4.0,4.0,4.0,4.0,5.00
2021-05-13 19:12:39.171,0.0,0.0,0.0,0.0,0.0,0.0,0.0,0.0,0.0,0.0,0.0,0.0,0.0,0.0,0.0,0.0,0.0,0.0,0.0,0.0,0.0,0.0,1626.227,1626.227,867.9121,-0.17864990234375,-0.25738525390625,-0.95538330078125,-0.112152099609375,6.81884765625,1.89910888671875,1,4.0,4.0,4.0,4.0,5.00
2021-05-13 19:12:39.172,0.0,0.0,0.0,0.0,0.0,0.0,0.0,0.0,0.0,0.0,0.0,0.0,0.0,0.0,0.0,0.0,0.0,0.0,0.0,0.0,0.0,0.0,1625.8242,1626.227,810.696,-0.17864990234375,-0.25738525390625,-0.95538330078125,-0.112152099609375,6.81884765625,1.89910888671875,1,4.0,4.0,4.0,4.0,5.00
2021-05-13 19:12:39.173,,,,,,,,,,,,,,,,,,,,,,,,,,,,,,,,,,,,,,/muse/elements/blink
2021-05-13 19:12:39.172,0.0,0.0,0.0,0.0,0.0,0.0,0.0,0.0,0.0,0.0,0.0,0.0,0.0,0.0,0.0,0.0,0.0,0.0,0.0,0.0,0.0,0.0,1626.227,1626.227,799.011,-0.17864990234375,-0.25738525390625,-0.95538330078125,-0.112152099609375,6.81884765625,1.89910888671875,1,4.0,4.0,4.0,4.0,5.00
2021-05-13 19:12:39.174,0.0,0.0,0.0,0.0,0.0,0.0,0.0,0.0,0.0,0.0,0.0,0.0,0.0,0.0,0.0,0.0,0.0,0.0,0.0,0.0,0.0,0.0,1625.8242,1626.227,276.8132,-0.17864990234375,-0.25738525390625,-0.95538330078125,-0.112152099609375,6.81884765625,1.89910888671875,1,4.0,4.0,4.0,4.0,5.00
2021-05-13 19:12:39.174,0.0,0.0,0.0,0.0,0.0,0.0,0.0,0.0,0.0,0.0,0.0,0.0,0.0,0.0,0.0,0.0,0.0,0.0,0.0,0.0,0.0,0.0,1625.8242,1626.227,318.71796,-0.17864990234375,-0.25738525390625,-0.95538330078125,-0.112152099609375,6.81884765625,1.89910888671875,1,4.0,4.0,4.0,4.0,5.00
2021-05-13 19:12:39.174,0.0,0.0,0.0,0.0,0.0,0.0,0.0,0.0,0.0,0.0,0.0,0.0,0.0,0.0,0.0,0.0,0.0,0.0,0.0,0.0,0.0,0.0,1626.227,1626.227,631.79486,-0.17864990234375,-0.25738525390625,-0.95538330078125,-0.112152099609375,6.81884765625,1.89910888671875,1,4.0,4.0,4.0,4.0,5.00
2021-05-13 19:12:39.175,0.0,0.0,0.0,0.0,0.0,0.0,0.0,0.0,0.0,0.0,0.0,0.0,0.0,0.0,0.0,0.0,0.0,0.0,0.0,0.0,0.0,0.0,1626.227,1626.227,727.28937,-0.17864990234375,-0.25738525390625,-0.95538330078125,-0.112152099609375,6.81884765625,1.89910888671875,1,4.0,4.0,4.0,4.0,5.00
2021-05-13 19:12:39.175,0.0,0.0,0.0,0.0,0.0,0.0,0.0,0.0,0.0,0.0,0.0,0.0,0.0,0.0,0.0,0.0,0.0,0.0,0.0,0.0,0.0,0.0,1626.227,1625.8242,788.5348,-0.17864990234375,-0.25738525390625,-0.95538330078125,-0.112152099609375,6.81884765625,1.89910888671875,1,4.0,4.0,4.0,4.0,5.00
2021-05-13 19:12:39.175,0.0,0.0,0.0,0.0,0.0,0.0,0.0,0.0,0.0,0.0,0.0,0.0,0.0,0.0,0.0,0.0,0.0,0.0,0.0,0.0,0.0,0.0,1626.227,1626.227,694.65204,-0.17864990234375,-0.25738525390625,-0.95538330078125,-0.112152099609375,6.81884765625,1.89910888671875,1,4.0,4.0,4.0,4.0,5.00
2021-05-13 19:12:39.230,0.0,0.0,0.0,0.0,0.0,0.0,0.0,0.0,0.0,0.0,0.0,0.0,0.0,0.0,0.0,0.0,0.0,0.0,0.0,0.0,0.0,0.0,1626.227,1626.227,516.55676,-0.14398193359375,-0.274658203125,-0.9495849609375,-1.966400146484375,14.35546875,1.973876953125,1,4.0,4.0,4.0,4.0,5.00
2021-05-13 19:12:39.230,0.0,0.0,0.0,0.0,0.0,0.0,0.0,0.0,0.0,0.0,0.0,0.0,0.0,0.0,0.0,0.0,0.0,0.0,0.0,0.0,0.0,0.0,1626.227,1626.227,810.696,-0.14398193359375,-0.274658203125,-0.9495849609375,-1.966400146484375,14.35546875,1.973876953125,1,4.0,4.0,4.0,4.0,5.00
2021-05-13 19:12:39.231,0.0,0.0,0.0,0.0,0.0,0.0,0.0,0.0,0.0,0.0,0.0,0.0,0.0,0.0,0.0,0.0,0.0,0.0,0.0,0.0,0.0,0.0,1626.227,1626.227,792.96704,-0.14398193359375,-0.274658203125,-0.9495849609375,-1.966400146484375,14.35546875,1.973876953125,1,4.0,4.0,4.0,4.0,5.00
2021-05-13 19:12:39.231,0.0,0.0,0.0,0.0,0.0,0.0,0.0,0.0,0.0,0.0,0.0,0.0,0.0,0.0,0.0,0.0,0.0,0.0,0.0,0.0,58.424908,18.534798,1626.227,1626.227,681.75824,-0.14398193359375,-0.274658203125,-0.9495849609375,-1.966400146484375,14.35546875,1.973876953125,1,4.0,4.0,4.0,4.0,5.00
2021-05-13 19:12:39.232,0.0,0.0,0.0,0.0,0.0,0.0,0.0,0.0,0.0,0.0,0.0,0.0,0.0,0.0,0.0,0.0,0.0,0.0,0.0,0.0,0.0,27.802198,1625.8242,1626.227,881.2088,-0.14398193359375,-0.274658203125,-0.9495849609375,-1.966400146484375,14.35546875,1.973876953125,1,4.0,4.0,4.0,4.0,5.00
2021-05-13 19:12:39.232,0.0,0.0,0.0,0.0,0.0,0.0,0.0,0.0,0.0,0.0,0.0,0.0,0.0,0.0,0.0,0.0,0.0,0.0,0.0,0.0,321.13553,0.0,1626.227,1626.227,833.663,-0.14398193359375,-0.274658203125,-0.9495849609375,-1.966400146484375,14.35546875,1.973876953125,1,4.0,4.0,4.0,4.0,5.00
2021-05-13 19:12:39.232,0.0,0.0,0.0,0.0,0.0,0.0,0.0,0.0,0.0,0.0,0.0,0.0,0.0,0.0,0.0,0.0,0.0,0.0,0.0,0.0,1456.5934,944.4689,1626.227,1626.227,795.38464,-0.14398193359375,-0.274658203125,-0.9495849609375,-1.966400146484375,14.35546875,1.973876953125,1,4.0,4.0,4.0,4.0,5.00
2021-05-13 19:12:39.232,0.0,0.0,0.0,0.0,0.0,0.0,0.0,0.0,0.0,0.0,0.0,0.0,0.0,0.0,0.0,0.0,0.0,0.0,0.0,0.0,128.5348,70.91575,1625.8242,1625.8242,760.32965,-0.14398193359375,-0.274658203125,-0.9495849609375,-1.966400146484375,14.35546875,1.973876953125,1,4.0,4.0,4.0,4.0,5.00
2021-05-13 19:12:39.233,0.0,0.0,0.0,0.0,0.0,0.0,0.0,0.0,0.0,0.0,0.0,0.0,0.0,0.0,0.0,0.0,0.0,0.0,0.0,0.0,986.77655,465.3846,1626.227,1626.227,266.73993,-0.14398193359375,-0.274658203125,-0.9495849609375,-1.966400146484375,14.35546875,1.973876953125,1,4.0,4.0,4.0,4.0,5.00
2021-05-13 19:12:39.233,0.0,0.0,0.0,0.0,0.0,0.0,0.0,0.0,0.0,0.0,0.0,0.0,0.0,0.0,0.0,0.0,0.0,0.0,0.0,0.0,0.0,0.0,1626.227,1625.8242,319.92673,-0.14398193359375,-0.274658203125,-0.9495849609375,-1.966400146484375,14.35546875,1.973876953125,1,4.0,4.0,4.0,4.0,5.00
2021-05-13 19:12:39.233,0.0,0.0,0.0,0.0,0.0,0.0,0.0,0.0,0.0,0.0,0.0,0.0,0.0,0.0,0.0,0.0,0.0,0.0,0.0,0.0,507.69232,54.395603,1626.227,1625.8242,634.21246,-0.14398193359375,-0.274658203125,-0.9495849609375,-1.966400146484375,14.35546875,1.973876953125,1,4.0,4.0,4.0,4.0,5.00
2021-05-13 19:12:39.233,0.0,0.0,0.0,0.0,0.0,0.0,0.0,0.0,0.0,0.0,0.0,0.0,0.0,0.0,0.0,0.0,0.0,0.0,0.0,0.0,1644.762,0.0,1626.227,1626.227,313.47986,-0.14398193359375,-0.274658203125,-0.9495849609375,-1.966400146484375,14.35546875,1.973876953125,1,4.0,4.0,4.0,4.0,5.00
2021-05-13 19:12:39.254,0.0,0.0,0.0,0.0,0.0,0.0,0.0,0.0,0.0,0.0,0.0,0.0,0.0,0.0,0.0,0.0,0.0,0.0,0.0,0.0,1633.0769,0.0,1626.227,1626.227,412.60074,-0.11566162109375,-0.2384033203125,-0.95233154296875,-14.31060791015625,26.624908447265625,-2.998199462890625,1,4.0,4.0,4.0,4.0,5.00
2021-05-13 19:12:39.254,0.0,0.0,0.0,0.0,0.0,0.0,0.0,0.0,0.0,0.0,0.0,0.0,0.0,0.0,0.0,0.0,0.0,0.0,0.0,0.0,1590.7693,0.0,1626.227,1626.227,793.36993,-0.11566162109375,-0.2384033203125,-0.95233154296875,-14.31060791015625,26.624908447265625,-2.998199462890625,1,4.0,4.0,4.0,4.0,5.00
2021-05-13 19:12:39.254,0.0,0.0,0.0,0.0,0.0,0.0,0.0,0.0,0.0,0.0,0.0,0.0,0.0,0.0,0.0,0.0,0.0,0.0,0.0,0.0,1635.0916,0.0,1626.227,1626.227,749.45056,-0.11566162109375,-0.2384033203125,-0.95233154296875,-14.31060791015625,26.624908447265625,-2.998199462890625,1,4.0,4.0,4.0,4.0,5.00
2021-05-13 19:12:39.255,0.0,0.0,0.0,0.0,0.0,0.0,0.0,0.0,0.0,0.0,0.0,0.0,0.0,0.0,0.0,0.0,0.0,0.0,0.0,0.0,1625.4213,0.0,1626.227,1626.227,574.9817,-0.11566162109375,-0.2384033203125,-0.95233154296875,-14.31060791015625,26.624908447265625,-2.998199462890625,1,4.0,4.0,4.0,4.0,5.00
2021-05-13 19:12:39.255,0.0,0.0,0.0,0.0,0.0,0.0,0.0,0.0,0.0,0.0,0.0,0.0,0.0,0.0,0.0,0.0,0.0,0.0,0.0,0.0,1625.8242,0.0,1625.8242,1626.227,604.7985,-0.11566162109375,-0.2384033203125,-0.95233154296875,-14.31060791015625,26.624908447265625,-2.998199462890625,1,4.0,4.0,4.0,4.0,5.00
2021-05-13 19:12:39.255,0.0,0.0,0.0,0.0,0.0,0.0,0.0,0.0,0.0,0.0,0.0,0.0,0.0,0.0,0.0,0.0,0.0,0.0,0.0,0.0,1625.4213,0.0,1626.227,1626.227,400.51282,-0.11566162109375,-0.2384033203125,-0.95233154296875,-14.31060791015625,26.624908447265625,-2.998199462890625,1,4.0,4.0,4.0,4.0,5.00
2021-05-13 19:12:39.255,0.0,0.0,0.0,0.0,0.0,0.0,0.0,0.0,0.0,0.0,0.0,0.0,0.0,0.0,0.0,0.0,0.0,0.0,0.0,0.0,1625.4213,0.0,1626.227,1626.227,551.2088,-0.11566162109375,-0.2384033203125,-0.95233154296875,-14.31060791015625,26.624908447265625,-2.998199462890625,1,4.0,4.0,4.0,4.0,5.00
2021-05-13 19:12:39.255,0.0,0.0,0.0,0.0,0.0,0.0,0.0,0.0,0.0,0.0,0.0,0.0,0.0,0.0,0.0,0.0,0.0,0.0,0.0,0.0,1625.8242,0.0,1626.227,1626.227,938.8278,-0.11566162109375,-0.2384033203125,-0.95233154296875,-14.31060791015625,26.624908447265625,-2.998199462890625,1,4.0,4.0,4.0,4.0,5.00
2021-05-13 19:12:39.257,0.0,0.0,0.0,0.0,0.0,0.0,0.0,0.0,0.0,0.0,0.0,0.0,0.0,0.0,0.0,0.0,0.0,0.0,0.0,0.0,1625.4213,0.0,1626.227,1625.8242,922.3077,-0.11566162109375,-0.2384033203125,-0.95233154296875,-14.31060791015625,26.624908447265625,-2.998199462890625,1,4.0,4.0,4.0,4.0,5.00
2021-05-13 19:12:39.257,0.0,0.0,0.0,0.0,0.0,0.0,0.0,0.0,0.0,0.0,0.0,0.0,0.0,0.0,0.0,0.0,0.0,0.0,0.0,0.0,1625.8242,0.0,1626.227,1625.8242,740.989,-0.11566162109375,-0.2384033203125,-0.95233154296875,-14.31060791015625,26.624908447265625,-2.998199462890625,1,4.0,4.0,4.0,4.0,5.00
2021-05-13 19:12:39.257,0.0,0.0,0.0,0.0,0.0,0.0,0.0,0.0,0.0,0.0,0.0,0.0,0.0,0.0,0.0,0.0,0.0,0.0,0.0,0.0,1637.9121,0.0,1626.227,1626.227,735.34796,-0.11566162109375,-0.2384033203125,-0.95233154296875,-14.31060791015625,26.624908447265625,-2.998199462890625,1,4.0,4.0,4.0,4.0,5.00
2021-05-13 19:12:39.257,0.0,0.0,0.0,0.0,0.0,0.0,0.0,0.0,0.0,0.0,0.0,0.0,0.0,0.0,0.0,0.0,0.0,0.0,0.0,0.0,1566.5934,0.0,1626.227,1626.227,1010.9524,-0.11566162109375,-0.2384033203125,-0.95233154296875,-14.31060791015625,26.624908447265625,-2.998199462890625,1,4.0,4.0,4.0,4.0,5.00
2021-05-13 19:12:39.320,0.0,0.0,0.0,0.0,0.0,0.0,0.0,0.0,0.0,0.0,0.0,0.0,0.0,0.0,0.0,0.0,0.0,0.0,0.0,0.0,65.67766,0.0,1626.227,1626.227,992.01465,-0.06298828125,-0.24951171875,-0.952880859375,-16.620941162109375,31.95587158203125,-1.996307373046875,1,4.0,4.0,4.0,4.0,5.00
2021-05-13 19:12:39.321,0.0,0.0,0.0,0.0,0.0,0.0,0.0,0.0,0.0,0.0,0.0,0.0,0.0,0.0,0.0,0.0,0.0,0.0,0.0,0.0,1313.956,0.0,1626.227,1626.227,945.6777,-0.06298828125,-0.24951171875,-0.952880859375,-16.620941162109375,31.95587158203125,-1.996307373046875,1,4.0,4.0,4.0,4.0,5.00
2021-05-13 19:12:39.321,0.0,0.0,0.0,0.0,0.0,0.0,0.0,0.0,0.0,0.0,0.0,0.0,0.0,0.0,0.0,0.0,0.0,0.0,0.0,0.0,124.10256,0.0,1626.227,1626.227,570.54944,-0.06298828125,-0.24951171875,-0.952880859375,-16.620941162109375,31.95587158203125,-1.996307373046875,1,4.0,4.0,4.0,4.0,5.00
2021-05-13 19:12:39.322,0.0,0.0,0.0,0.0,0.0,0.0,0.0,0.0,0.0,0.0,0.0,0.0,0.0,0.0,0.0,0.0,0.0,0.0,0.0,0.0,0.0,0.0,1626.227,1626.227,776.4469,-0.06298828125,-0.24951171875,-0.952880859375,-16.620941162109375,31.95587158203125,-1.996307373046875,1,4.0,4.0,4.0,4.0,5.00
2021-05-13 19:12:39.322,0.0,0.0,0.0,0.0,0.0,0.0,0.0,0.0,0.0,0.0,0.0,0.0,0.0,0.0,0.0,0.0,0.0,0.0,0.0,0.0,47.545788,0.0,1626.227,1625.8242,721.2454,-0.06298828125,-0.24951171875,-0.952880859375,-16.620941162109375,31.95587158203125,-1.996307373046875,1,4.0,4.0,4.0,4.0,5.00
2021-05-13 19:12:39.322,0.0,0.0,0.0,0.0,0.0,0.0,0.0,0.0,0.0,0.0,0.0,0.0,0.0,0.0,0.0,0.0,0.0,0.0,0.0,0.0,0.0,0.0,1626.227,1626.227,560.07324,-0.06298828125,-0.24951171875,-0.952880859375,-16.620941162109375,31.95587158203125,-1.996307373046875,1,4.0,4.0,4.0,4.0,5.00
2021-05-13 19:12:39.322,0.0,0.0,0.0,0.0,0.0,0.0,0.0,0.0,0.0,0.0,0.0,0.0,0.0,0.0,0.0,0.0,0.0,0.0,0.0,0.0,0.0,0.0,1626.227,1626.227,806.26373,-0.06298828125,-0.24951171875,-0.952880859375,-16.620941162109375,31.95587158203125,-1.996307373046875,1,4.0,4.0,4.0,4.0,5.00
2021-05-13 19:12:39.323,0.0,0.0,0.0,0.0,0.0,0.0,0.0,0.0,0.0,0.0,0.0,0.0,0.0,0.0,0.0,0.0,0.0,0.0,0.0,0.0,0.0,0.0,1626.227,1625.8242,718.8278,-0.06298828125,-0.24951171875,-0.952880859375,-16.620941162109375,31.95587158203125,-1.996307373046875,1,4.0,4.0,4.0,4.0,5.00
2021-05-13 19:12:39.323,0.0,0.0,0.0,0.0,0.0,0.0,0.0,0.0,0.0,0.0,0.0,0.0,0.0,0.0,0.0,0.0,0.0,0.0,0.0,0.0,0.0,0.0,1626.227,1626.227,911.8315,-0.06298828125,-0.24951171875,-0.952880859375,-16.620941162109375,31.95587158203125,-1.996307373046875,1,4.0,4.0,4.0,4.0,5.00
2021-05-13 19:12:39.323,0.0,0.0,0.0,0.0,0.0,0.0,0.0,0.0,0.0,0.0,0.0,0.0,0.0,0.0,0.0,0.0,0.0,0.0,0.0,0.0,0.0,0.0,1626.227,1626.227,869.5238,-0.06298828125,-0.24951171875,-0.952880859375,-16.620941162109375,31.95587158203125,-1.996307373046875,1,4.0,4.0,4.0,4.0,5.00
2021-05-13 19:12:39.323,0.0,0.0,0.0,0.0,0.0,0.0,0.0,0.0,0.0,0.0,0.0,0.0,0.0,0.0,0.0,0.0,0.0,0.0,0.0,0.0,0.0,0.0,1626.227,1626.227,1024.652,-0.06298828125,-0.24951171875,-0.952880859375,-16.620941162109375,31.95587158203125,-1.996307373046875,1,4.0,4.0,4.0,4.0,5.00
2021-05-13 19:12:39.324,0.0,0.0,0.0,0.0,0.0,0.0,0.0,0.0,0.0,0.0,0.0,0.0,0.0,0.0,0.0,0.0,0.0,0.0,0.0,0.0,0.0,0.0,1626.227,1626.227,1174.5421,-0.06298828125,-0.24951171875,-0.952880859375,-16.620941162109375,31.95587158203125,-1.996307373046875,1,4.0,4.0,4.0,4.0,5.00
2021-05-13 19:12:39.354,0.0,0.0,0.0,0.0,0.0,0.0,0.0,0.0,0.0,0.0,0.0,0.0,0.0,0.0,0.0,0.0,0.0,0.0,0.0,0.0,0.0,0.0,1626.227,1626.227,1123.37,-0.06298828125,-0.24951171875,-0.952880859375,-16.620941162109375,31.95587158203125,-1.996307373046875,1,4.0,4.0,4.0,4.0,5.00
2021-05-13 19:12:39.355,0.0,0.0,0.0,0.0,0.0,0.0,0.0,0.0,0.0,0.0,0.0,0.0,0.0,0.0,0.0,0.0,0.0,0.0,0.0,0.0,0.0,0.0,1626.227,1626.227,1068.1685,-0.06298828125,-0.24951171875,-0.952880859375,-16.620941162109375,31.95587158203125,-1.996307373046875,1,4.0,4.0,4.0,4.0,5.00
2021-05-13 19:12:39.355,0.0,0.0,0.0,0.0,0.0,0.0,0.0,0.0,0.0,0.0,0.0,0.0,0.0,0.0,0.0,0.0,0.0,0.0,0.0,0.0,0.0,0.0,1626.227,1626.227,1113.6996,-0.06298828125,-0.24951171875,-0.952880859375,-16.620941162109375,31.95587158203125,-1.996307373046875,1,4.0,4.0,4.0,4.0,5.00
2021-05-13 19:12:39.355,0.0,0.0,0.0,0.0,0.0,0.0,0.0,0.0,0.0,0.0,0.0,0.0,0.0,0.0,0.0,0.0,0.0,0.0,0.0,0.0,0.0,0.0,1626.227,1625.8242,990.0,-0.06298828125,-0.24951171875,-0.952880859375,-16.620941162109375,31.95587158203125,-1.996307373046875,1,4.0,4.0,4.0,4.0,5.00
2021-05-13 19:12:39.356,0.0,0.0,0.0,0.0,0.0,0.0,0.0,0.0,0.0,0.0,0.0,0.0,0.0,0.0,0.0,0.0,0.0,0.0,0.0,0.0,0.0,0.0,1626.227,1626.227,756.7033,-0.06298828125,-0.24951171875,-0.952880859375,-16.620941162109375,31.95587158203125,-1.996307373046875,1,4.0,4.0,4.0,4.0,5.00
2021-05-13 19:12:39.356,0.0,0.0,0.0,0.0,0.0,0.0,0.0,0.0,0.0,0.0,0.0,0.0,0.0,0.0,0.0,0.0,0.0,0.0,0.0,0.0,0.0,0.0,1626.227,1626.227,808.68134,-0.06298828125,-0.24951171875,-0.952880859375,-16.620941162109375,31.95587158203125,-1.996307373046875,1,4.0,4.0,4.0,4.0,5.00
2021-05-13 19:12:39.356,0.0,0.0,0.0,0.0,0.0,0.0,0.0,0.0,0.0,0.0,0.0,0.0,0.0,0.0,0.0,0.0,0.0,0.0,0.0,0.0,0.0,0.0,1626.227,1626.227,819.15753,-0.06298828125,-0.24951171875,-0.952880859375,-16.620941162109375,31.95587158203125,-1.996307373046875,1,4.0,4.0,4.0,4.0,5.00
2021-05-13 19:12:39.356,0.0,0.0,0.0,0.0,0.0,0.0,0.0,0.0,0.0,0.0,0.0,0.0,0.0,0.0,0.0,0.0,0.0,0.0,0.0,0.0,0.0,0.0,1626.227,1626.227,904.17584,-0.06298828125,-0.24951171875,-0.952880859375,-16.620941162109375,31.95587158203125,-1.996307373046875,1,4.0,4.0,4.0,4.0,5.00
2021-05-13 19:12:39.356,0.0,0.0,0.0,0.0,0.0,0.0,0.0,0.0,0.0,0.0,0.0,0.0,0.0,0.0,0.0,0.0,0.0,0.0,0.0,0.0,0.0,0.0,1626.227,1626.227,940.84247,-0.06298828125,-0.24951171875,-0.952880859375,-16.620941162109375,31.95587158203125,-1.996307373046875,1,4.0,4.0,4.0,4.0,5.00
2021-05-13 19:12:39.357,,,,,,,,,,,,,,,,,,,,,,,,,,,,,,,,,,,,,,/muse/elements/blink
2021-05-13 19:12:39.357,0.0,0.0,0.0,0.0,0.0,0.0,0.0,0.0,0.0,0.0,0.0,0.0,0.0,0.0,0.0,0.0,0.0,0.0,0.0,0.0,0.0,0.0,1626.227,1626.227,1000.4762,-0.06298828125,-0.24951171875,-0.952880859375,-16.620941162109375,31.95587158203125,-1.996307373046875,1,4.0,4.0,4.0,4.0,5.00
2021-05-13 19:12:39.358,0.0,0.0,0.0,0.0,0.0,0.0,0.0,0.0,0.0,0.0,0.0,0.0,0.0,0.0,0.0,0.0,0.0,0.0,0.0,0.0,0.0,0.0,1626.227,1626.227,761.13556,-0.06298828125,-0.24951171875,-0.952880859375,-16.620941162109375,31.95587158203125,-1.996307373046875,1,4.0,4.0,4.0,4.0,5.00
2021-05-13 19:12:39.358,0.0,0.0,0.0,0.0,0.0,0.0,0.0,0.0,0.0,0.0,0.0,0.0,0.0,0.0,0.0,0.0,0.0,0.0,0.0,0.0,0.0,0.0,1626.227,1626.227,653.5531,-0.06298828125,-0.24951171875,-0.952880859375,-16.620941162109375,31.95587158203125,-1.996307373046875,1,4.0,4.0,4.0,4.0,5.00
2021-05-13 19:12:39.420,0.0,0.0,0.0,0.0,0.0,0.0,0.0,0.0,0.0,0.0,0.0,0.0,0.0,0.0,0.0,0.0,0.0,0.0,0.0,0.0,0.0,0.0,1626.227,1626.227,763.95605,-0.02349853515625,-0.1785888671875,-0.9683837890625,-28.972625732421875,47.17864990234375,-2.930908203125,1,4.0,4.0,4.0,4.0,5.00
2021-05-13 19:12:39.421,0.0,0.0,0.0,0.0,0.0,0.0,0.0,0.0,0.0,0.0,0.0,0.0,0.0,0.0,0.0,0.0,0.0,0.0,0.0,0.0,0.0,0.0,1625.8242,1626.227,671.685,-0.02349853515625,-0.1785888671875,-0.9683837890625,-28.972625732421875,47.17864990234375,-2.930908203125,1,4.0,4.0,4.0,4.0,5.00
2021-05-13 19:12:39.421,0.0,0.0,0.0,0.0,0.0,0.0,0.0,0.0,0.0,0.0,0.0,0.0,0.0,0.0,0.0,0.0,0.0,0.0,0.0,0.0,0.0,0.0,1626.227,1626.227,618.49817,-0.02349853515625,-0.1785888671875,-0.9683837890625,-28.972625732421875,47.17864990234375,-2.930908203125,1,4.0,4.0,4.0,4.0,5.00
2021-05-13 19:12:39.421,0.0,0.0,0.0,0.0,0.0,0.0,0.0,0.0,0.0,0.0,0.0,0.0,0.0,0.0,0.0,0.0,0.0,0.0,0.0,0.0,0.0,0.0,1626.227,1626.227,784.5055,-0.02349853515625,-0.1785888671875,-0.9683837890625,-28.972625732421875,47.17864990234375,-2.930908203125,1,4.0,4.0,4.0,4.0,5.00
2021-05-13 19:12:39.421,0.0,0.0,0.0,0.0,0.0,0.0,0.0,0.0,0.0,0.0,0.0,0.0,0.0,0.0,0.0,0.0,0.0,0.0,0.0,0.0,0.0,0.0,1626.227,1630.6593,912.23444,-0.02349853515625,-0.1785888671875,-0.9683837890625,-28.972625732421875,47.17864990234375,-2.930908203125,1,4.0,4.0,4.0,4.0,5.00
2021-05-13 19:12:39.422,0.0,0.0,0.0,0.0,0.0,0.0,0.0,0.0,0.0,0.0,0.0,0.0,0.0,0.0,0.0,0.0,0.0,0.0,0.0,0.0,0.0,0.0,1626.227,1569.8169,607.619,-0.02349853515625,-0.1785888671875,-0.9683837890625,-28.972625732421875,47.17864990234375,-2.930908203125,1,4.0,4.0,4.0,4.0,5.00
2021-05-13 19:12:39.422,0.0,0.0,0.0,0.0,0.0,0.0,0.0,0.0,0.0,0.0,0.0,0.0,0.0,0.0,0.0,0.0,0.0,0.0,0.0,0.0,0.0,0.0,1626.227,90.65934,720.0366,-0.02349853515625,-0.1785888671875,-0.9683837890625,-28.972625732421875,47.17864990234375,-2.930908203125,1,4.0,4.0,4.0,4.0,5.00
2021-05-13 19:12:39.422,0.0,0.0,0.0,0.0,0.0,0.0,0.0,0.0,0.0,0.0,0.0,0.0,0.0,0.0,0.0,0.0,0.0,0.0,0.0,0.0,0.0,0.0,1626.227,1064.5421,840.10986,-0.02349853515625,-0.1785888671875,-0.9683837890625,-28.972625732421875,47.17864990234375,-2.930908203125,1,4.0,4.0,4.0,4.0,5.00
2021-05-13 19:12:39.422,0.0,0.0,0.0,0.0,0.0,0.0,0.0,0.0,0.0,0.0,0.0,0.0,0.0,0.0,0.0,0.0,0.0,0.0,0.0,0.0,0.0,0.0,1626.227,0.0,1003.69965,-0.02349853515625,-0.1785888671875,-0.9683837890625,-28.972625732421875,47.17864990234375,-2.930908203125,1,4.0,4.0,4.0,4.0,5.00
2021-05-13 19:12:39.423,0.0,0.0,0.0,0.0,0.0,0.0,0.0,0.0,0.0,0.0,0.0,0.0,0.0,0.0,0.0,0.0,0.0,0.0,0.0,0.0,0.0,0.0,1626.63,0.0,1149.9634,-0.02349853515625,-0.1785888671875,-0.9683837890625,-28.972625732421875,47.17864990234375,-2.930908203125,1,4.0,4.0,4.0,4.0,5.00
2021-05-13 19:12:39.423,0.0,0.0,0.0,0.0,0.0,0.0,0.0,0.0,0.0,0.0,0.0,0.0,0.0,0.0,0.0,0.0,0.0,0.0,0.0,0.0,0.0,0.0,1626.227,29.010988,1237.8022,-0.02349853515625,-0.1785888671875,-0.9683837890625,-28.972625732421875,47.17864990234375,-2.930908203125,1,4.0,4.0,4.0,4.0,5.00
2021-05-13 19:12:39.423,0.0,0.0,0.0,0.0,0.0,0.0,0.0,0.0,0.0,0.0,0.0,0.0,0.0,0.0,0.0,0.0,0.0,0.0,0.0,0.0,0.0,0.0,1626.227,0.0,1207.5824,-0.02349853515625,-0.1785888671875,-0.9683837890625,-28.972625732421875,47.17864990234375,-2.930908203125,1,4.0,4.0,4.0,4.0,5.00
2021-05-13 19:12:39.454,0.0,0.0,0.0,0.0,0.0,0.0,0.0,0.0,0.0,0.0,0.0,0.0,0.0,0.0,0.0,0.0,0.0,0.0,0.0,0.0,0.0,0.0,1626.227,0.0,936.4103,0.0126953125,-0.123779296875,-0.9451904296875,-20.957489013671875,36.05316162109375,1.6748046875,1,4.0,4.0,4.0,4.0,5.00
2021-05-13 19:12:39.455,0.0,0.0,0.0,0.0,0.0,0.0,0.0,0.0,0.0,0.0,0.0,0.0,0.0,0.0,0.0,0.0,0.0,0.0,0.0,0.0,0.0,0.0,1626.227,0.0,598.7546,0.0126953125,-0.123779296875,-0.9451904296875,-20.957489013671875,36.05316162109375,1.6748046875,1,4.0,4.0,4.0,4.0,5.00
2021-05-13 19:12:39.455,0.0,0.0,0.0,0.0,0.0,0.0,0.0,0.0,0.0,0.0,0.0,0.0,0.0,0.0,0.0,0.0,0.0,0.0,0.0,0.0,0.0,0.0,1626.227,0.0,346.52014,0.0126953125,-0.123779296875,-0.9451904296875,-20.957489013671875,36.05316162109375,1.6748046875,1,4.0,4.0,4.0,4.0,5.00
2021-05-13 19:12:39.455,0.0,0.0,0.0,0.0,0.0,0.0,0.0,0.0,0.0,0.0,0.0,0.0,0.0,0.0,0.0,0.0,0.0,0.0,0.0,0.0,0.0,0.0,1626.227,0.0,568.5348,0.0126953125,-0.123779296875,-0.9451904296875,-20.957489013671875,36.05316162109375,1.6748046875,1,4.0,4.0,4.0,4.0,5.00
2021-05-13 19:12:39.455,0.0,0.0,0.0,0.0,0.0,0.0,0.0,0.0,0.0,0.0,0.0,0.0,0.0,0.0,0.0,0.0,0.0,0.0,0.0,0.0,0.0,0.0,1626.227,0.0,821.978,0.0126953125,-0.123779296875,-0.9451904296875,-20.957489013671875,36.05316162109375,1.6748046875,1,4.0,4.0,4.0,4.0,5.00
2021-05-13 19:12:39.456,0.0,0.0,0.0,0.0,0.0,0.0,0.0,0.0,0.0,0.0,0.0,0.0,0.0,0.0,0.0,0.0,0.0,0.0,0.0,0.0,0.0,0.0,1626.227,0.0,545.9707,0.0126953125,-0.123779296875,-0.9451904296875,-20.957489013671875,36.05316162109375,1.6748046875,1,4.0,4.0,4.0,4.0,5.00
2021-05-13 19:12:39.456,0.0,0.0,0.0,0.0,0.0,0.0,0.0,0.0,0.0,0.0,0.0,0.0,0.0,0.0,0.0,0.0,0.0,0.0,0.0,0.0,0.0,0.0,1626.227,0.0,108.79121,0.0126953125,-0.123779296875,-0.9451904296875,-20.957489013671875,36.05316162109375,1.6748046875,1,4.0,4.0,4.0,4.0,5.00
2021-05-13 19:12:39.456,0.0,0.0,0.0,0.0,0.0,0.0,0.0,0.0,0.0,0.0,0.0,0.0,0.0,0.0,0.0,0.0,0.0,0.0,0.0,0.0,31.428572,59.6337,1626.227,0.0,451.68497,0.0126953125,-0.123779296875,-0.9451904296875,-20.957489013671875,36.05316162109375,1.6748046875,1,4.0,4.0,4.0,4.0,5.00
2021-05-13 19:12:39.456,0.0,0.0,0.0,0.0,0.0,0.0,0.0,0.0,0.0,0.0,0.0,0.0,0.0,0.0,0.0,0.0,0.0,0.0,0.0,0.0,0.0,0.0,1626.227,0.0,1037.1428,0.0126953125,-0.123779296875,-0.9451904296875,-20.957489013671875,36.05316162109375,1.6748046875,1,4.0,4.0,4.0,4.0,5.00
2021-05-13 19:12:39.456,0.0,0.0,0.0,0.0,0.0,0.0,0.0,0.0,0.0,0.0,0.0,0.0,0.0,0.0,0.0,0.0,0.0,0.0,0.0,0.0,10.879121,332.01465,1626.227,0.0,838.49817,0.0126953125,-0.123779296875,-0.9451904296875,-20.957489013671875,36.05316162109375,1.6748046875,1,4.0,4.0,4.0,4.0,5.00
2021-05-13 19:12:39.457,0.0,0.0,0.0,0.0,0.0,0.0,0.0,0.0,0.0,0.0,0.0,0.0,0.0,0.0,0.0,0.0,0.0,0.0,0.0,0.0,1104.0293,1523.4799,1626.227,0.0,863.8828,0.0126953125,-0.123779296875,-0.9451904296875,-20.957489013671875,36.05316162109375,1.6748046875,1,4.0,4.0,4.0,4.0,5.00
2021-05-13 19:12:39.457,0.0,0.0,0.0,0.0,0.0,0.0,0.0,0.0,0.0,0.0,0.0,0.0,0.0,0.0,0.0,0.0,0.0,0.0,0.0,0.0,79.78022,20.54945,1626.227,0.0,1170.5128,0.0126953125,-0.123779296875,-0.9451904296875,-20.957489013671875,36.05316162109375,1.6748046875,1,4.0,4.0,4.0,4.0,5.00
2021-05-13 19:12:39.486,0.0,0.0,0.0,0.0,0.0,0.0,0.0,0.0,0.0,0.0,0.0,0.0,0.0,0.0,0.0,0.0,0.0,0.0,0.0,0.0,1571.8315,1579.0842,1626.227,0.0,1080.6593,-0.00634765625,-0.09527587890625,-0.9815673828125,-22.62481689453125,18.176116943359375,6.258087158203125,1,4.0,4.0,4.0,4.0,5.00
2021-05-13 19:12:39.486,0.0,0.0,0.0,0.0,0.0,0.0,0.0,0.0,0.0,0.0,0.0,0.0,0.0,0.0,0.0,0.0,0.0,0.0,0.0,0.0,1630.2565,1638.7179,1626.227,0.0,1095.5677,-0.00634765625,-0.09527587890625,-0.9815673828125,-22.62481689453125,18.176116943359375,6.258087158203125,1,4.0,4.0,4.0,4.0,5.00
2021-05-13 19:12:39.487,0.0,0.0,0.0,0.0,0.0,0.0,0.0,0.0,0.0,0.0,0.0,0.0,0.0,0.0,0.0,0.0,0.0,0.0,0.0,0.0,1625.8242,1626.227,1626.227,0.0,1104.4323,-0.00634765625,-0.09527587890625,-0.9815673828125,-22.62481689453125,18.176116943359375,6.258087158203125,1,4.0,4.0,4.0,4.0,5.00
2021-05-13 19:12:39.487,0.0,0.0,0.0,0.0,0.0,0.0,0.0,0.0,0.0,0.0,0.0,0.0,0.0,0.0,0.0,0.0,0.0,0.0,0.0,0.0,1625.8242,1626.227,1626.227,0.0,902.96704,-0.00634765625,-0.09527587890625,-0.9815673828125,-22.62481689453125,18.176116943359375,6.258087158203125,1,4.0,4.0,4.0,4.0,5.00
2021-05-13 19:12:39.487,0.0,0.0,0.0,0.0,0.0,0.0,0.0,0.0,0.0,0.0,0.0,0.0,0.0,0.0,0.0,0.0,0.0,0.0,0.0,0.0,1625.8242,1626.227,1626.227,0.0,1029.0842,-0.00634765625,-0.09527587890625,-0.9815673828125,-22.62481689453125,18.176116943359375,6.258087158203125,1,4.0,4.0,4.0,4.0,5.00
2021-05-13 19:12:39.487,0.0,0.0,0.0,0.0,0.0,0.0,0.0,0.0,0.0,0.0,0.0,0.0,0.0,0.0,0.0,0.0,0.0,0.0,0.0,0.0,1625.4213,1626.227,1626.227,0.0,988.3883,-0.00634765625,-0.09527587890625,-0.9815673828125,-22.62481689453125,18.176116943359375,6.258087158203125,1,4.0,4.0,4.0,4.0,5.00
2021-05-13 19:12:39.487,0.0,0.0,0.0,0.0,0.0,0.0,0.0,0.0,0.0,0.0,0.0,0.0,0.0,0.0,0.0,0.0,0.0,0.0,0.0,0.0,1625.8242,1626.227,1626.227,0.0,960.58606,-0.00634765625,-0.09527587890625,-0.9815673828125,-22.62481689453125,18.176116943359375,6.258087158203125,1,4.0,4.0,4.0,4.0,5.00
2021-05-13 19:12:39.488,0.0,0.0,0.0,0.0,0.0,0.0,0.0,0.0,0.0,0.0,0.0,0.0,0.0,0.0,0.0,0.0,0.0,0.0,0.0,0.0,1625.8242,1626.227,1626.227,0.0,1070.586,-0.00634765625,-0.09527587890625,-0.9815673828125,-22.62481689453125,18.176116943359375,6.258087158203125,1,4.0,4.0,4.0,4.0,5.00
2021-05-13 19:12:39.488,0.0,0.0,0.0,0.0,0.0,0.0,0.0,0.0,0.0,0.0,0.0,0.0,0.0,0.0,0.0,0.0,0.0,0.0,0.0,0.0,1625.8242,1626.227,1626.227,0.0,656.3736,-0.00634765625,-0.09527587890625,-0.9815673828125,-22.62481689453125,18.176116943359375,6.258087158203125,1,4.0,4.0,4.0,4.0,5.00
2021-05-13 19:12:39.488,0.0,0.0,0.0,0.0,0.0,0.0,0.0,0.0,0.0,0.0,0.0,0.0,0.0,0.0,0.0,0.0,0.0,0.0,0.0,0.0,1625.4213,1625.8242,1626.227,0.0,591.0989,-0.00634765625,-0.09527587890625,-0.9815673828125,-22.62481689453125,18.176116943359375,6.258087158203125,1,4.0,4.0,4.0,4.0,5.00
2021-05-13 19:12:39.488,0.0,0.0,0.0,0.0,0.0,0.0,0.0,0.0,0.0,0.0,0.0,0.0,0.0,0.0,0.0,0.0,0.0,0.0,0.0,0.0,1625.8242,1626.227,1627.033,0.0,1006.1172,-0.00634765625,-0.09527587890625,-0.9815673828125,-22.62481689453125,18.176116943359375,6.258087158203125,1,4.0,4.0,4.0,4.0,5.00
2021-05-13 19:12:39.489,0.0,0.0,0.0,0.0,0.0,0.0,0.0,0.0,0.0,0.0,0.0,0.0,0.0,0.0,0.0,0.0,0.0,0.0,0.0,0.0,1625.8242,1625.8242,1623.0037,0.0,927.5458,-0.00634765625,-0.09527587890625,-0.9815673828125,-22.62481689453125,18.176116943359375,6.258087158203125,1,4.0,4.0,4.0,4.0,5.00
2021-05-13 19:12:39.547,0.0,0.0,0.0,0.0,0.0,0.0,0.0,0.0,0.0,0.0,0.0,0.0,0.0,0.0,0.0,0.0,0.0,0.0,0.0,0.0,1625.4213,1626.227,1633.8828,0.0,802.23444,0.0841064453125,-0.14263916015625,-0.9520263671875,7.349700927734375,3.2000732421875,11.761016845703125,1,4.0,4.0,4.0,4.0,5.00
2021-05-13 19:12:39.548,0.0,0.0,0.0,0.0,0.0,0.0,0.0,0.0,0.0,0.0,0.0,0.0,0.0,0.0,0.0,0.0,0.0,0.0,0.0,0.0,1625.4213,1626.227,1604.4689,0.0,615.6777,0.0841064453125,-0.14263916015625,-0.9520263671875,7.349700927734375,3.2000732421875,11.761016845703125,1,4.0,4.0,4.0,4.0,5.00
2021-05-13 19:12:39.548,0.0,0.0,0.0,0.0,0.0,0.0,0.0,0.0,0.0,0.0,0.0,0.0,0.0,0.0,0.0,0.0,0.0,0.0,0.0,0.0,1625.8242,1626.227,1582.7106,0.0,726.4835,0.0841064453125,-0.14263916015625,-0.9520263671875,7.349700927734375,3.2000732421875,11.761016845703125,1,4.0,4.0,4.0,4.0,5.00
2021-05-13 19:12:39.549,0.0,0.0,0.0,0.0,0.0,0.0,0.0,0.0,0.0,0.0,0.0,0.0,0.0,0.0,0.0,0.0,0.0,0.0,0.0,0.0,1625.8242,1626.227,1627.4359,0.0,1075.8242,0.0841064453125,-0.14263916015625,-0.9520263671875,7.349700927734375,3.2000732421875,11.761016845703125,1,4.0,4.0,4.0,4.0,5.00
2021-05-13 19:12:39.549,0.0,0.0,0.0,0.0,0.0,0.0,0.0,0.0,0.0,0.0,0.0,0.0,0.0,0.0,0.0,0.0,0.0,0.0,0.0,0.0,1625.4213,1626.227,1627.8389,0.0,880.0,0.0841064453125,-0.14263916015625,-0.9520263671875,7.349700927734375,3.2000732421875,11.761016845703125,1,4.0,4.0,4.0,4.0,5.00
2021-05-13 19:12:39.549,0.0,0.0,0.0,0.0,0.0,0.0,0.0,0.0,0.0,0.0,0.0,0.0,0.0,0.0,0.0,0.0,0.0,0.0,0.0,0.0,1625.8242,1626.227,1624.6154,0.0,646.7033,0.0841064453125,-0.14263916015625,-0.9520263671875,7.349700927734375,3.2000732421875,11.761016845703125,1,4.0,4.0,4.0,4.0,5.00
2021-05-13 19:12:39.550,0.0,0.0,0.0,0.0,0.0,0.0,0.0,0.0,0.0,0.0,0.0,0.0,0.0,0.0,0.0,0.0,0.0,0.0,0.0,0.0,1625.8242,1626.63,1626.63,0.0,840.9158,0.0841064453125,-0.14263916015625,-0.9520263671875,7.349700927734375,3.2000732421875,11.761016845703125,1,4.0,4.0,4.0,4.0,5.00
2021-05-13 19:12:39.550,0.0,0.0,0.0,0.0,0.0,0.0,0.0,0.0,0.0,0.0,0.0,0.0,0.0,0.0,0.0,0.0,0.0,0.0,0.0,0.0,1625.4213,1626.227,1626.227,0.0,822.7839,0.0841064453125,-0.14263916015625,-0.9520263671875,7.349700927734375,3.2000732421875,11.761016845703125,1,4.0,4.0,4.0,4.0,5.00
2021-05-13 19:12:39.551,0.0,0.0,0.0,0.0,0.0,0.0,0.0,0.0,0.0,0.0,0.0,0.0,0.0,0.0,0.0,0.0,0.0,0.0,0.0,0.0,1625.4213,1626.227,1629.8535,0.0,842.52747,0.0841064453125,-0.14263916015625,-0.9520263671875,7.349700927734375,3.2000732421875,11.761016845703125,1,4.0,4.0,4.0,4.0,5.00
2021-05-13 19:12:39.551,0.0,0.0,0.0,0.0,0.0,0.0,0.0,0.0,0.0,0.0,0.0,0.0,0.0,0.0,0.0,0.0,0.0,0.0,0.0,0.0,1625.4213,1626.227,1606.8865,0.0,923.5165,0.0841064453125,-0.14263916015625,-0.9520263671875,7.349700927734375,3.2000732421875,11.761016845703125,1,4.0,4.0,4.0,4.0,5.00
2021-05-13 19:12:39.551,0.0,0.0,0.0,0.0,0.0,0.0,0.0,0.0,0.0,0.0,0.0,0.0,0.0,0.0,0.0,0.0,0.0,0.0,0.0,0.0,1625.8242,1626.227,1624.6154,0.0,800.2198,0.0841064453125,-0.14263916015625,-0.9520263671875,7.349700927734375,3.2000732421875,11.761016845703125,1,4.0,4.0,4.0,4.0,5.00
2021-05-13 19:12:39.552,0.0,0.0,0.0,0.0,0.0,0.0,0.0,0.0,0.0,0.0,0.0,0.0,0.0,0.0,0.0,0.0,0.0,0.0,0.0,0.0,1625.4213,1626.227,1569.011,0.0,757.1062,0.0841064453125,-0.14263916015625,-0.9520263671875,7.349700927734375,3.2000732421875,11.761016845703125,1,4.0,4.0,4.0,4.0,5.00
2021-05-13 19:12:39.590,0.0,0.0,0.0,0.0,0.0,0.0,0.0,0.0,0.0,0.0,0.0,0.0,0.0,0.0,0.0,0.0,0.0,0.0,0.0,0.0,1625.8242,1626.227,662.01465,0.0,745.82416,0.0841064453125,-0.14263916015625,-0.9520263671875,7.349700927734375,3.2000732421875,11.761016845703125,1,4.0,4.0,4.0,4.0,5.00
2021-05-13 19:12:39.591,,,,,,,,,,,,,,,,,,,,,,,,,,,,,,,,,,,,,,/muse/elements/blink
2021-05-13 19:12:39.591,0.0,0.0,0.0,0.0,0.0,0.0,0.0,0.0,0.0,0.0,0.0,0.0,0.0,0.0,0.0,0.0,0.0,0.0,0.0,0.0,1625.8242,1626.227,0.0,0.0,813.1135,0.0841064453125,-0.14263916015625,-0.9520263671875,7.349700927734375,3.2000732421875,11.761016845703125,1,4.0,4.0,2.0,4.0,5.00
2021-05-13 19:12:39.592,0.0,0.0,0.0,0.0,0.0,0.0,0.0,0.0,0.0,0.0,0.0,0.0,0.0,0.0,0.0,0.0,0.0,0.0,0.0,0.0,1625.4213,1626.227,25.384615,0.0,528.24176,0.0841064453125,-0.14263916015625,-0.9520263671875,7.349700927734375,3.2000732421875,11.761016845703125,1,4.0,4.0,2.0,4.0,5.00
2021-05-13 19:12:39.593,0.0,0.0,0.0,0.0,0.0,0.0,0.0,0.0,0.0,0.0,0.0,0.0,0.0,0.0,0.0,0.0,0.0,0.0,0.0,0.0,1625.4213,1626.227,9.267399,0.0,346.52014,0.0841064453125,-0.14263916015625,-0.9520263671875,7.349700927734375,3.2000732421875,11.761016845703125,1,4.0,4.0,2.0,4.0,5.00
2021-05-13 19:12:39.593,0.0,0.0,0.0,0.0,0.0,0.0,0.0,0.0,0.0,0.0,0.0,0.0,0.0,0.0,0.0,0.0,0.0,0.0,0.0,0.0,1625.4213,1626.63,0.0,0.0,643.0769,0.0841064453125,-0.14263916015625,-0.9520263671875,7.349700927734375,3.2000732421875,11.761016845703125,1,4.0,4.0,2.0,4.0,5.00
2021-05-13 19:12:39.593,0.0,0.0,0.0,0.0,0.0,0.0,0.0,0.0,0.0,0.0,0.0,0.0,0.0,0.0,0.0,0.0,0.0,0.0,0.0,0.0,1625.8242,1626.227,0.0,0.0,920.293,0.0841064453125,-0.14263916015625,-0.9520263671875,7.349700927734375,3.2000732421875,11.761016845703125,1,4.0,4.0,2.0,4.0,5.00
2021-05-13 19:12:39.594,0.0,0.0,0.0,0.0,0.0,0.0,0.0,0.0,0.0,0.0,0.0,0.0,0.0,0.0,0.0,0.0,0.0,0.0,0.0,0.0,1625.8242,1626.227,0.0,0.0,834.87177,0.0841064453125,-0.14263916015625,-0.9520263671875,7.349700927734375,3.2000732421875,11.761016845703125,1,4.0,4.0,2.0,4.0,5.00
2021-05-13 19:12:39.594,0.0,0.0,0.0,0.0,0.0,0.0,0.0,0.0,0.0,0.0,0.0,0.0,0.0,0.0,0.0,0.0,0.0,0.0,0.0,0.0,1625.8242,1626.227,0.0,0.0,549.59705,0.0841064453125,-0.14263916015625,-0.9520263671875,7.349700927734375,3.2000732421875,11.761016845703125,1,4.0,4.0,2.0,4.0,5.00
2021-05-13 19:12:39.594,0.0,0.0,0.0,0.0,0.0,0.0,0.0,0.0,0.0,0.0,0.0,0.0,0.0,0.0,0.0,0.0,0.0,0.0,0.0,0.0,1625.8242,1626.227,0.0,0.0,614.4689,0.0841064453125,-0.14263916015625,-0.9520263671875,7.349700927734375,3.2000732421875,11.761016845703125,1,4.0,4.0,2.0,4.0,5.00
2021-05-13 19:12:39.594,0.0,0.0,0.0,0.0,0.0,0.0,0.0,0.0,0.0,0.0,0.0,0.0,0.0,0.0,0.0,0.0,0.0,0.0,0.0,0.0,1625.8242,1626.227,0.0,0.0,751.06226,0.0841064453125,-0.14263916015625,-0.9520263671875,7.349700927734375,3.2000732421875,11.761016845703125,1,4.0,4.0,2.0,4.0,5.00
2021-05-13 19:12:39.595,0.0,0.0,0.0,0.0,0.0,0.0,0.0,0.0,0.0,0.0,0.0,0.0,0.0,0.0,0.0,0.0,0.0,0.0,0.0,0.0,1625.8242,1626.227,0.0,0.0,859.45056,0.0841064453125,-0.14263916015625,-0.9520263671875,7.349700927734375,3.2000732421875,11.761016845703125,1,4.0,4.0,2.0,4.0,5.00
2021-05-13 19:12:39.595,0.0,0.0,0.0,0.0,0.0,0.0,0.0,0.0,0.0,0.0,0.0,0.0,0.0,0.0,0.0,0.0,0.0,0.0,0.0,0.0,1625.8242,1626.227,0.0,0.0,893.69965,0.0841064453125,-0.14263916015625,-0.9520263671875,7.349700927734375,3.2000732421875,11.761016845703125,1,4.0,4.0,2.0,4.0,5.00
2021-05-13 19:12:39.620,0.0,0.0,0.0,0.0,0.0,0.0,0.0,0.0,0.0,0.0,0.0,0.0,0.0,0.0,0.0,0.0,0.0,0.0,0.0,0.0,1625.8242,1626.227,0.0,0.0,922.3077,0.07989501953125,-0.1876220703125,-0.93450927734375,26.923980712890625,-12.48626708984375,20.95001220703125,1,4.0,4.0,2.0,4.0,5.00
2021-05-13 19:12:39.620,0.0,0.0,0.0,0.0,0.0,0.0,0.0,0.0,0.0,0.0,0.0,0.0,0.0,0.0,0.0,0.0,0.0,0.0,0.0,0.0,1625.8242,1626.227,0.0,0.0,520.58606,0.07989501953125,-0.1876220703125,-0.93450927734375,26.923980712890625,-12.48626708984375,20.95001220703125,1,4.0,4.0,2.0,4.0,5.00
2021-05-13 19:12:39.621,0.0,0.0,0.0,0.0,0.0,0.0,0.0,0.0,0.0,0.0,0.0,0.0,0.0,0.0,0.0,0.0,0.0,0.0,0.0,0.0,1625.8242,1626.227,0.0,0.0,244.57875,0.07989501953125,-0.1876220703125,-0.93450927734375,26.923980712890625,-12.48626708984375,20.95001220703125,1,4.0,4.0,2.0,4.0,5.00
2021-05-13 19:12:39.621,0.0,0.0,0.0,0.0,0.0,0.0,0.0,0.0,0.0,0.0,0.0,0.0,0.0,0.0,0.0,0.0,0.0,0.0,0.0,0.0,1625.8242,1626.227,0.0,0.0,604.7985,0.07989501953125,-0.1876220703125,-0.93450927734375,26.923980712890625,-12.48626708984375,20.95001220703125,1,4.0,4.0,2.0,4.0,5.00
2021-05-13 19:12:39.621,0.0,0.0,0.0,0.0,0.0,0.0,0.0,0.0,0.0,0.0,0.0,0.0,0.0,0.0,0.0,0.0,0.0,0.0,0.0,0.0,1625.8242,1626.227,0.0,0.0,714.3956,0.07989501953125,-0.1876220703125,-0.93450927734375,26.923980712890625,-12.48626708984375,20.95001220703125,1,4.0,4.0,2.0,4.0,5.00
2021-05-13 19:12:39.621,0.0,0.0,0.0,0.0,0.0,0.0,0.0,0.0,0.0,0.0,0.0,0.0,0.0,0.0,0.0,0.0,0.0,0.0,0.0,0.0,1625.8242,1626.227,0.0,0.0,883.22345,0.07989501953125,-0.1876220703125,-0.93450927734375,26.923980712890625,-12.48626708984375,20.95001220703125,1,4.0,4.0,2.0,4.0,5.00
2021-05-13 19:12:39.622,0.0,0.0,0.0,0.0,0.0,0.0,0.0,0.0,0.0,0.0,0.0,0.0,0.0,0.0,0.0,0.0,0.0,0.0,0.0,0.0,1625.8242,1626.227,0.0,0.0,1120.5494,0.07989501953125,-0.1876220703125,-0.93450927734375,26.923980712890625,-12.48626708984375,20.95001220703125,1,4.0,4.0,2.0,4.0,5.00
2021-05-13 19:12:39.622,0.0,0.0,0.0,0.0,0.0,0.0,0.0,0.0,0.0,0.0,0.0,0.0,0.0,0.0,0.0,0.0,0.0,0.0,0.0,0.0,1625.8242,1626.227,0.0,0.0,1067.3627,0.07989501953125,-0.1876220703125,-0.93450927734375,26.923980712890625,-12.48626708984375,20.95001220703125,1,4.0,4.0,2.0,4.0,5.00
2021-05-13 19:12:39.622,0.0,0.0,0.0,0.0,0.0,0.0,0.0,0.0,0.0,0.0,0.0,0.0,0.0,0.0,0.0,0.0,0.0,0.0,0.0,0.0,1625.8242,1626.227,0.0,0.0,1084.6886,0.07989501953125,-0.1876220703125,-0.93450927734375,26.923980712890625,-12.48626708984375,20.95001220703125,1,4.0,4.0,2.0,4.0,5.00
2021-05-13 19:12:39.623,0.0,0.0,0.0,0.0,0.0,0.0,0.0,0.0,0.0,0.0,0.0,0.0,0.0,0.0,0.0,0.0,0.0,0.0,0.0,0.0,1625.4213,1626.227,0.0,0.0,1062.1245,0.07989501953125,-0.1876220703125,-0.93450927734375,26.923980712890625,-12.48626708984375,20.95001220703125,1,4.0,4.0,2.0,4.0,5.00
2021-05-13 19:12:39.623,0.0,0.0,0.0,0.0,0.0,0.0,0.0,0.0,0.0,0.0,0.0,0.0,0.0,0.0,0.0,0.0,0.0,0.0,0.0,0.0,1625.4213,1626.227,0.0,0.0,1000.87915,0.07989501953125,-0.1876220703125,-0.93450927734375,26.923980712890625,-12.48626708984375,20.95001220703125,1,4.0,4.0,2.0,4.0,5.00
2021-05-13 19:12:39.623,0.0,0.0,0.0,0.0,0.0,0.0,0.0,0.0,0.0,0.0,0.0,0.0,0.0,0.0,0.0,0.0,0.0,0.0,0.0,0.0,1625.8242,1626.227,0.0,0.0,877.1795,0.07989501953125,-0.1876220703125,-0.93450927734375,26.923980712890625,-12.48626708984375,20.95001220703125,1,4.0,4.0,2.0,4.0,5.00
2021-05-13 19:12:39.680,0.0,0.0,0.0,0.0,0.0,0.0,0.0,0.0,0.0,0.0,0.0,0.0,0.0,0.0,0.0,0.0,0.0,0.0,0.0,0.0,1625.8242,1626.227,0.0,0.0,770.40295,-0.1033935546875,-0.193603515625,-1.05731201171875,57.2723388671875,-54.6405029296875,33.742828369140625,1,4.0,4.0,2.0,4.0,5.00
2021-05-13 19:12:39.680,0.0,0.0,0.0,0.0,0.0,0.0,0.0,0.0,0.0,0.0,0.0,0.0,0.0,0.0,0.0,0.0,0.0,0.0,0.0,0.0,1625.4213,1626.227,0.0,0.0,1044.3956,-0.1033935546875,-0.193603515625,-1.05731201171875,57.2723388671875,-54.6405029296875,33.742828369140625,1,4.0,4.0,2.0,4.0,5.00
2021-05-13 19:12:39.681,0.0,0.0,0.0,0.0,0.0,0.0,0.0,0.0,0.0,0.0,0.0,0.0,0.0,0.0,0.0,0.0,0.0,0.0,0.0,0.0,1625.8242,1626.227,0.0,0.0,823.5897,-0.1033935546875,-0.193603515625,-1.05731201171875,57.2723388671875,-54.6405029296875,33.742828369140625,1,4.0,4.0,2.0,4.0,5.00
2021-05-13 19:12:39.681,0.0,0.0,0.0,0.0,0.0,0.0,0.0,0.0,0.0,0.0,0.0,0.0,0.0,0.0,0.0,0.0,0.0,0.0,0.0,0.0,1625.4213,1626.227,0.0,0.0,639.0476,-0.1033935546875,-0.193603515625,-1.05731201171875,57.2723388671875,-54.6405029296875,33.742828369140625,1,4.0,4.0,4.0,4.0,5.00
2021-05-13 19:12:39.683,0.0,0.0,0.0,0.0,0.0,0.0,0.0,0.0,0.0,0.0,0.0,0.0,0.0,0.0,0.0,0.0,0.0,0.0,0.0,0.0,1625.4213,1626.227,0.0,0.0,964.21246,-0.1033935546875,-0.193603515625,-1.05731201171875,57.2723388671875,-54.6405029296875,33.742828369140625,1,4.0,4.0,4.0,4.0,5.00
2021-05-13 19:12:39.684,0.0,0.0,0.0,0.0,0.0,0.0,0.0,0.0,0.0,0.0,0.0,0.0,0.0,0.0,0.0,0.0,0.0,0.0,0.0,0.0,1625.4213,1626.227,0.0,0.0,782.49084,-0.1033935546875,-0.193603515625,-1.05731201171875,57.2723388671875,-54.6405029296875,33.742828369140625,1,4.0,4.0,4.0,4.0,5.00
2021-05-13 19:12:39.684,0.0,0.0,0.0,0.0,0.0,0.0,0.0,0.0,0.0,0.0,0.0,0.0,0.0,0.0,0.0,0.0,0.0,0.0,0.0,0.0,1625.8242,1626.227,0.0,0.0,740.18317,-0.1033935546875,-0.193603515625,-1.05731201171875,57.2723388671875,-54.6405029296875,33.742828369140625,1,4.0,4.0,4.0,4.0,5.00
2021-05-13 19:12:39.684,0.0,0.0,0.0,0.0,0.0,0.0,0.0,0.0,0.0,0.0,0.0,0.0,0.0,0.0,0.0,0.0,0.0,0.0,0.0,0.0,1625.8242,1626.227,0.0,0.0,789.34064,-0.1033935546875,-0.193603515625,-1.05731201171875,57.2723388671875,-54.6405029296875,33.742828369140625,1,4.0,4.0,4.0,4.0,5.00
2021-05-13 19:12:39.685,0.0,0.0,0.0,0.0,0.0,0.0,0.0,0.0,0.0,0.0,0.0,0.0,0.0,0.0,0.0,0.0,0.0,0.0,0.0,0.0,1625.8242,1626.227,0.0,0.0,655.16486,-0.1033935546875,-0.193603515625,-1.05731201171875,57.2723388671875,-54.6405029296875,33.742828369140625,1,4.0,4.0,4.0,4.0,5.00
2021-05-13 19:12:39.685,0.0,0.0,0.0,0.0,0.0,0.0,0.0,0.0,0.0,0.0,0.0,0.0,0.0,0.0,0.0,0.0,0.0,0.0,0.0,0.0,1625.4213,1626.227,0.0,0.0,502.85715,-0.1033935546875,-0.193603515625,-1.05731201171875,57.2723388671875,-54.6405029296875,33.742828369140625,1,4.0,4.0,4.0,4.0,5.00
2021-05-13 19:12:39.685,0.0,0.0,0.0,0.0,0.0,0.0,0.0,0.0,0.0,0.0,0.0,0.0,0.0,0.0,0.0,0.0,0.0,0.0,0.0,0.0,1625.4213,1626.227,0.0,0.0,648.315,-0.1033935546875,-0.193603515625,-1.05731201171875,57.2723388671875,-54.6405029296875,33.742828369140625,1,4.0,4.0,4.0,4.0,5.00
2021-05-13 19:12:39.686,0.0,0.0,0.0,0.0,0.0,0.0,0.0,0.0,0.0,0.0,0.0,0.0,0.0,0.0,0.0,0.0,0.0,0.0,0.0,0.0,1625.4213,1626.227,0.0,0.0,544.7619,-0.1033935546875,-0.193603515625,-1.05731201171875,57.2723388671875,-54.6405029296875,33.742828369140625,1,4.0,4.0,4.0,4.0,5.00
2021-05-13 19:12:39.730,0.0,0.0,0.0,0.0,0.0,0.0,0.0,0.0,0.0,0.0,0.0,0.0,0.0,0.0,0.0,0.0,0.0,0.0,0.0,0.0,1625.4213,1626.227,0.0,0.0,355.78754,-0.01226806640625,-0.2705078125,-1.02813720703125,37.197113037109375,-47.320709228515625,26.086578369140625,1,4.0,4.0,4.0,4.0,5.00
2021-05-13 19:12:39.730,0.0,0.0,0.0,0.0,0.0,0.0,0.0,0.0,0.0,0.0,0.0,0.0,0.0,0.0,0.0,0.0,0.0,0.0,0.0,0.0,1625.8242,1626.227,0.0,0.0,326.77655,-0.01226806640625,-0.2705078125,-1.02813720703125,37.197113037109375,-47.320709228515625,26.086578369140625,1,4.0,4.0,4.0,4.0,5.00
2021-05-13 19:12:39.731,0.0,0.0,0.0,0.0,0.0,0.0,0.0,0.0,0.0,0.0,0.0,0.0,0.0,0.0,0.0,0.0,0.0,0.0,0.0,0.0,1625.8242,1626.227,0.0,0.0,562.8938,-0.01226806640625,-0.2705078125,-1.02813720703125,37.197113037109375,-47.320709228515625,26.086578369140625,1,4.0,4.0,4.0,4.0,5.00
2021-05-13 19:12:39.731,0.0,0.0,0.0,0.0,0.0,0.0,0.0,0.0,0.0,0.0,0.0,0.0,0.0,0.0,0.0,0.0,0.0,0.0,0.0,0.0,1625.8242,1626.227,0.0,0.0,919.0842,-0.01226806640625,-0.2705078125,-1.02813720703125,37.197113037109375,-47.320709228515625,26.086578369140625,1,4.0,4.0,4.0,4.0,5.00
2021-05-13 19:12:39.732,0.0,0.0,0.0,0.0,0.0,0.0,0.0,0.0,0.0,0.0,0.0,0.0,0.0,0.0,0.0,0.0,0.0,0.0,0.0,0.0,1625.8242,1626.227,0.0,0.0,730.10986,-0.01226806640625,-0.2705078125,-1.02813720703125,37.197113037109375,-47.320709228515625,26.086578369140625,1,4.0,4.0,4.0,4.0,5.00
2021-05-13 19:12:39.733,0.0,0.0,0.0,0.0,0.0,0.0,0.0,0.0,0.0,0.0,0.0,0.0,0.0,0.0,0.0,0.0,0.0,0.0,0.0,0.0,1625.4213,1626.227,0.0,0.0,781.28204,-0.01226806640625,-0.2705078125,-1.02813720703125,37.197113037109375,-47.320709228515625,26.086578369140625,1,4.0,4.0,4.0,4.0,5.00
2021-05-13 19:12:39.733,0.0,0.0,0.0,0.0,0.0,0.0,0.0,0.0,0.0,0.0,0.0,0.0,0.0,0.0,0.0,0.0,0.0,0.0,0.0,0.0,1625.8242,1626.227,0.0,0.0,647.9121,-0.01226806640625,-0.2705078125,-1.02813720703125,37.197113037109375,-47.320709228515625,26.086578369140625,1,4.0,4.0,4.0,4.0,5.00
2021-05-13 19:12:39.734,0.0,0.0,0.0,0.0,0.0,0.0,0.0,0.0,0.0,0.0,0.0,0.0,0.0,0.0,0.0,0.0,0.0,0.0,0.0,0.0,1625.8242,1626.227,0.0,0.0,500.43958,-0.01226806640625,-0.2705078125,-1.02813720703125,37.197113037109375,-47.320709228515625,26.086578369140625,1,4.0,4.0,4.0,4.0,5.00
2021-05-13 19:12:39.734,0.0,0.0,0.0,0.0,0.0,0.0,0.0,0.0,0.0,0.0,0.0,0.0,0.0,0.0,0.0,0.0,0.0,0.0,0.0,0.0,1625.8242,1626.227,0.0,0.0,799.011,-0.01226806640625,-0.2705078125,-1.02813720703125,37.197113037109375,-47.320709228515625,26.086578369140625,1,4.0,4.0,4.0,4.0,5.00
2021-05-13 19:12:39.735,0.0,0.0,0.0,0.0,0.0,0.0,0.0,0.0,0.0,0.0,0.0,0.0,0.0,0.0,0.0,0.0,0.0,0.0,0.0,0.0,1625.8242,1626.227,0.0,0.0,798.60803,-0.01226806640625,-0.2705078125,-1.02813720703125,37.197113037109375,-47.320709228515625,26.086578369140625,1,4.0,4.0,4.0,4.0,5.00
2021-05-13 19:12:39.735,0.0,0.0,0.0,0.0,0.0,0.0,0.0,0.0,0.0,0.0,0.0,0.0,0.0,0.0,0.0,0.0,0.0,0.0,0.0,0.0,1625.8242,1626.227,0.0,0.0,902.96704,-0.01226806640625,-0.2705078125,-1.02813720703125,37.197113037109375,-47.320709228515625,26.086578369140625,1,4.0,4.0,4.0,4.0,5.00
2021-05-13 19:12:39.736,0.0,0.0,0.0,0.0,0.0,0.0,0.0,0.0,0.0,0.0,0.0,0.0,0.0,0.0,0.0,0.0,0.0,0.0,0.0,0.0,1625.8242,1626.227,0.0,0.0,977.50916,-0.01226806640625,-0.2705078125,-1.02813720703125,37.197113037109375,-47.320709228515625,26.086578369140625,1,4.0,4.0,4.0,4.0,5.00
2021-05-13 19:12:39.789,0.0,0.0,0.0,0.0,0.0,0.0,0.0,0.0,0.0,0.0,0.0,0.0,0.0,0.0,0.0,0.0,0.0,0.0,0.0,0.0,1625.4213,1626.63,0.0,0.0,994.43225,-0.0538330078125,-0.267578125,-0.947509765625,10.90118408203125,-6.631927490234375,-0.19439697265625,1,4.0,4.0,4.0,4.0,5.00
2021-05-13 19:12:39.789,0.0,0.0,0.0,0.0,0.0,0.0,0.0,0.0,0.0,0.0,0.0,0.0,0.0,0.0,0.0,0.0,0.0,0.0,0.0,0.0,1625.8242,1626.227,0.0,0.0,680.54944,-0.0538330078125,-0.267578125,-0.947509765625,10.90118408203125,-6.631927490234375,-0.19439697265625,1,4.0,4.0,4.0,4.0,5.00
2021-05-13 19:12:39.790,0.0,0.0,0.0,0.0,0.0,0.0,0.0,0.0,0.0,0.0,0.0,0.0,0.0,0.0,0.0,0.0,0.0,0.0,0.0,0.0,1625.8242,1626.227,0.0,0.0,221.61172,-0.0538330078125,-0.267578125,-0.947509765625,10.90118408203125,-6.631927490234375,-0.19439697265625,1,4.0,4.0,4.0,4.0,5.00
2021-05-13 19:12:39.790,0.0,0.0,0.0,0.0,0.0,0.0,0.0,0.0,0.0,0.0,0.0,0.0,0.0,0.0,0.0,0.0,0.0,0.0,0.0,0.0,1625.8242,1626.227,0.0,0.0,37.472527,-0.0538330078125,-0.267578125,-0.947509765625,10.90118408203125,-6.631927490234375,-0.19439697265625,1,4.0,4.0,4.0,4.0,5.00
2021-05-13 19:12:39.790,0.0,0.0,0.0,0.0,0.0,0.0,0.0,0.0,0.0,0.0,0.0,0.0,0.0,0.0,0.0,0.0,0.0,0.0,0.0,0.0,1625.8242,1626.227,0.0,0.0,255.05495,-0.0538330078125,-0.267578125,-0.947509765625,10.90118408203125,-6.631927490234375,-0.19439697265625,1,4.0,4.0,4.0,4.0,5.00
2021-05-13 19:12:39.791,0.0,0.0,0.0,0.0,0.0,0.0,0.0,0.0,0.0,0.0,0.0,0.0,0.0,0.0,0.0,0.0,0.0,0.0,0.0,0.0,1625.8242,1626.227,0.0,0.0,686.1905,-0.0538330078125,-0.267578125,-0.947509765625,10.90118408203125,-6.631927490234375,-0.19439697265625,1,4.0,4.0,4.0,4.0,5.00
2021-05-13 19:12:39.792,0.0,0.0,0.0,0.0,0.0,0.0,0.0,0.0,0.0,0.0,0.0,0.0,0.0,0.0,0.0,0.0,0.0,0.0,0.0,0.0,1625.8242,1626.227,0.0,0.0,872.74725,-0.0538330078125,-0.267578125,-0.947509765625,10.90118408203125,-6.631927490234375,-0.19439697265625,1,4.0,4.0,4.0,4.0,5.00
2021-05-13 19:12:39.793,0.0,0.0,0.0,0.0,0.0,0.0,0.0,0.0,0.0,0.0,0.0,0.0,0.0,0.0,0.0,0.0,0.0,0.0,0.0,0.0,1625.8242,1626.227,0.0,0.0,1166.0806,-0.0538330078125,-0.267578125,-0.947509765625,10.90118408203125,-6.631927490234375,-0.19439697265625,1,4.0,4.0,4.0,4.0,5.00
2021-05-13 19:12:39.793,0.0,0.0,0.0,0.0,0.0,0.0,0.0,0.0,0.0,0.0,0.0,0.0,0.0,0.0,0.0,0.0,0.0,0.0,0.0,0.0,1625.8242,1626.227,0.0,0.0,1154.3956,-0.0538330078125,-0.267578125,-0.947509765625,10.90118408203125,-6.631927490234375,-0.19439697265625,1,4.0,4.0,4.0,4.0,5.00
2021-05-13 19:12:39.793,0.0,0.0,0.0,0.0,0.0,0.0,0.0,0.0,0.0,0.0,0.0,0.0,0.0,0.0,0.0,0.0,0.0,0.0,0.0,0.0,1625.8242,1626.227,0.0,0.0,1009.7436,-0.0538330078125,-0.267578125,-0.947509765625,10.90118408203125,-6.631927490234375,-0.19439697265625,1,4.0,4.0,4.0,4.0,5.00
2021-05-13 19:12:39.793,0.0,0.0,0.0,0.0,0.0,0.0,0.0,0.0,0.0,0.0,0.0,0.0,0.0,0.0,0.0,0.0,0.0,0.0,0.0,0.0,1625.8242,1626.227,0.0,0.0,1128.2051,-0.0538330078125,-0.267578125,-0.947509765625,10.90118408203125,-6.631927490234375,-0.19439697265625,1,4.0,4.0,4.0,4.0,5.00
2021-05-13 19:12:39.794,0.0,0.0,0.0,0.0,0.0,0.0,0.0,0.0,0.0,0.0,0.0,0.0,0.0,0.0,0.0,0.0,0.0,0.0,0.0,0.0,1625.8242,1626.227,0.0,0.0,839.707,-0.0538330078125,-0.267578125,-0.947509765625,10.90118408203125,-6.631927490234375,-0.19439697265625,1,4.0,4.0,4.0,4.0,5.00
2021-05-13 19:12:39.821,0.0,0.0,0.0,0.0,0.0,0.0,0.0,0.0,0.0,0.0,0.0,0.0,0.0,0.0,0.0,0.0,0.0,0.0,0.0,0.0,1625.8242,1626.227,0.0,0.0,777.6557,-0.0538330078125,-0.267578125,-0.947509765625,10.90118408203125,-6.631927490234375,-0.19439697265625,1,4.0,4.0,4.0,4.0,5.00
