timestamps,TP9,AF7,AF8,TP10,Right AUX
1621214493.984,-39.551,-36.133,-30.273,-23.438,0.000
1621214493.988,-32.715,-34.180,-33.691,-23.438,0.000
1621214493.991,-27.344,-25.391,-32.227,-25.879,0.000
1621214493.995,-21.973,-33.691,-29.785,-31.738,0.000
1621214493.999,-27.832,-42.969,-29.297,-28.809,0.000
1621214494.003,-20.020,-31.738,-27.344,-15.137,0.000
1621214494.007,-9.766,-22.461,-31.738,-19.531,0.000
1621214494.011,-13.184,-28.320,-31.738,-27.344,0.000
1621214494.015,-14.648,-45.898,-26.855,-29.297,0.000
1621214494.019,-12.695,-57.617,-27.344,-29.297,0.000
1621214494.022,-15.625,-43.457,-28.320,-31.738,0.000
1621214494.026,-21.973,-30.273,-31.738,-32.715,0.000
1621214494.031,-25.391,-29.785,-32.227,-29.785,0.000
1621214494.034,-12.207,-28.320,-30.762,-32.715,0.000
1621214494.038,-1.953,-39.551,-29.785,-32.715,0.000
1621214494.042,-9.766,-42.969,-25.879,-16.113,0.000
1621214494.046,-16.113,-40.039,-26.367,-10.742,0.000
1621214494.050,-14.160,-52.734,-28.320,-11.719,0.000
1621214494.054,-15.625,-46.387,-25.879,-7.812,0.000
1621214494.058,-24.902,-36.133,-24.902,-8.789,0.000
1621214494.062,-14.648,-46.387,-23.926,-8.301,0.000
1621214494.065,-26.367,-55.176,-21.973,-20.020,0.000
1621214494.069,-36.133,-54.199,-26.855,-27.832,0.000
1621214494.073,-22.461,-35.156,-32.715,-17.578,0.000
1621214494.078,-26.855,-22.949,-27.832,-17.578,0.000
1621214494.082,-33.691,-30.273,-20.508,-24.902,0.000
1621214494.085,-41.992,-39.551,-28.809,-27.344,0.000
1621214494.089,-27.344,-46.387,-30.762,-17.578,0.000
1621214494.093,-5.371,-37.598,-21.973,-21.484,0.000
1621214494.097,-13.184,-41.016,-25.879,-29.785,0.000
1621214494.101,-14.648,-41.992,-31.250,-26.855,0.000
1621214494.105,-4.883,-25.879,-31.250,-20.508,0.000
1621214494.109,-4.883,-27.832,-32.227,-20.020,0.000
1621214494.112,-35.156,-34.180,-35.156,-31.738,0.000
1621214494.116,-52.734,-46.387,-40.527,-38.574,0.000
1621214494.120,-31.738,-53.711,-34.668,-27.344,0.000
1621214494.125,-17.090,-53.223,-27.344,-23.926,0.000
1621214494.128,-23.438,-41.992,-28.809,-35.645,0.000
1621214494.132,-37.598,-27.344,-26.855,-33.691,0.000
1621214494.136,-46.387,-28.320,-27.832,-35.156,0.000
1621214494.140,-38.086,-43.945,-32.227,-28.809,0.000
1621214494.144,-31.250,-37.109,-37.109,-26.855,0.000
1621214494.148,-30.273,-31.250,-36.621,-37.109,0.000
1621214494.152,-22.461,-41.016,-36.621,-33.691,0.000
1621214494.155,-20.508,-35.156,-37.109,-22.461,0.000
1621214494.159,-19.043,-29.297,-35.156,-14.160,0.000
1621214494.163,-22.949,-32.227,-32.715,-10.254,0.000
1621214494.167,-41.016,-36.133,-34.668,-14.160,0.000
1621214494.171,-51.758,-47.852,-39.551,-24.414,0.000
1621214494.175,-46.387,-48.828,-41.016,-26.367,0.000
1621214494.179,-22.949,-42.969,-41.016,-32.227,0.000
1621214494.183,-15.137,-43.945,-35.156,-33.203,0.000
1621214494.187,-18.066,-39.551,-27.832,-27.832,0.000
1621214494.191,-22.949,-42.969,-34.180,-31.738,0.000
1621214494.195,-34.180,-45.898,-43.457,-26.855,0.000
1621214494.198,-37.598,-35.645,-40.527,-28.809,0.000
1621214494.202,-28.320,-30.273,-37.109,-38.574,0.000
1621214494.206,-17.090,-35.645,-40.039,-37.109,0.000
1621214494.210,-7.324,-44.922,-37.598,-34.180,0.000
1621214494.214,-20.996,-49.316,-38.086,-38.086,0.000
1621214494.218,-38.086,-50.781,-40.039,-45.898,0.000
1621214494.222,-32.715,-56.152,-33.203,-44.922,0.000
1621214494.226,-27.832,-41.504,-29.297,-36.133,0.000
1621214494.230,-24.414,-28.809,-31.738,-37.598,0.000
1621214494.234,-26.855,-40.039,-38.086,-48.828,0.000
1621214494.238,-36.133,-45.410,-42.480,-43.457,0.000
1621214494.241,-50.293,-52.246,-43.945,-30.273,0.000
1621214494.245,-42.969,-61.035,-38.574,-35.645,0.000
1621214494.249,-29.785,-43.945,-34.668,-44.434,0.000
1621214494.253,-21.973,-31.250,-35.645,-32.227,0.000
1621214494.257,-23.926,-33.203,-35.156,-25.391,0.000
1621214494.261,-31.250,-41.992,-37.598,-27.344,0.000
1621214494.265,-31.250,-49.805,-40.039,-26.855,0.000
1621214494.269,-29.297,-45.898,-38.574,-24.902,0.000
1621214494.273,-20.996,-51.758,-42.969,-16.602,0.000
1621214494.277,-19.531,-56.152,-33.691,-6.836,0.000
1621214494.281,-28.320,-39.551,-23.438,-7.324,0.000
1621214494.284,-34.180,-33.691,-26.367,-15.625,0.000
1621214494.288,-27.344,-45.410,-27.344,-12.695,0.000
1621214494.292,-18.555,-44.922,-26.855,-13.672,0.000
1621214494.296,-11.230,-31.738,-30.273,-22.949,0.000
1621214494.300,-0.488,-29.785,-29.785,-36.621,0.000
1621214494.304,-6.836,-43.945,-26.855,-33.691,0.000
1621214494.308,-25.879,-46.875,-26.367,-23.438,0.000
1621214494.312,-19.043,-26.367,-32.227,-30.273,0.000
1621214494.316,-22.949,-22.949,-37.109,-28.320,0.000
1621214494.320,-25.391,-39.062,-33.691,-23.926,0.000
1621214494.324,-20.996,-43.457,-27.832,-31.738,0.000
1621214494.327,-24.902,-38.086,-29.297,-29.785,0.000
1621214494.331,-20.508,-36.133,-30.273,-30.273,0.000
1621214494.335,-18.066,-44.922,-31.738,-32.715,0.000
1621214494.339,-31.738,-55.176,-38.086,-27.344,0.000
1621214494.343,-46.387,-43.457,-35.645,-26.367,0.000
1621214494.347,-31.250,-34.180,-33.691,-39.062,0.000
1621214494.351,-19.043,-28.809,-35.645,-47.363,0.000
1621214494.355,-22.461,-25.391,-35.156,-42.480,0.000
1621214494.359,-18.066,-34.668,-33.691,-39.062,0.000
1621214494.363,-15.625,-40.527,-28.809,-29.785,0.000
1621214494.367,-20.508,-35.645,-30.762,-23.926,0.000
1621214494.371,-24.902,-38.086,-28.809,-15.625,0.000
1621214494.374,-29.297,-44.434,-28.320,-15.137,0.000
1621214494.378,-26.855,-53.223,-34.180,-27.832,0.000
1621214494.382,-20.020,-62.012,-32.227,-33.203,0.000
1621214494.386,-16.602,-50.781,-31.250,-32.715,0.000
1621214494.390,-23.438,-33.691,-32.715,-21.973,0.000
1621214494.394,-35.156,-28.809,-31.738,-16.602,0.000
1621214494.398,-39.551,-32.715,-31.738,-29.785,0.000
1621214494.401,-36.621,-38.574,-34.180,-37.109,0.000
1621214494.406,-25.391,-45.898,-30.762,-34.668,0.000
1621214494.410,-17.090,-50.781,-32.227,-31.250,0.000
1621214494.414,-12.695,-42.969,-38.574,-34.668,0.000
1621214494.417,-15.137,-40.527,-35.645,-36.621,0.000
1621214494.421,-29.297,-48.828,-39.551,-35.645,0.000
1621214494.425,-22.461,-48.828,-39.062,-28.320,0.000
1621214494.429,-16.113,-41.016,-31.250,-33.203,0.000
1621214494.433,-41.992,-37.109,-32.715,-38.574,0.000
1621214494.437,-42.969,-45.410,-33.691,-20.996,0.000
1621214494.441,-36.133,-43.457,-33.691,-19.043,0.000
1621214494.445,-24.902,-35.156,-32.715,-25.391,0.000
1621214494.448,-1.465,-35.645,-35.156,-24.902,0.000
1621214494.453,0.977,-25.879,-32.227,-23.926,0.000
1621214494.457,-3.906,-28.809,-28.320,-21.484,0.000
1621214494.460,-15.137,-30.762,-40.039,-26.367,0.000
1621214494.464,-28.809,-28.320,-40.039,-31.250,0.000
1621214494.468,-26.855,-39.551,-27.832,-29.785,0.000
1621214494.472,-18.066,-39.062,-30.273,-23.438,0.000
1621214494.476,-17.090,-29.297,-38.086,-18.066,0.000
1621214494.480,-12.207,-38.574,-33.203,-12.207,0.000
1621214494.484,-9.766,-44.434,-28.320,-16.602,0.000
1621214494.488,-18.555,-43.945,-32.715,-31.738,0.000
1621214494.491,-12.207,-40.527,-37.598,-32.227,0.000
1621214494.495,-5.371,-31.250,-35.645,-37.109,0.000
1621214494.500,-34.668,-42.480,-25.391,-43.457,0.000
1621214494.503,-58.105,-52.246,-32.227,-33.203,0.000
1621214494.507,-46.387,-38.086,-36.621,-25.391,0.000
1621214494.511,-49.316,-28.320,-30.273,-27.344,0.000
1621214494.515,-48.828,-28.809,-26.367,-29.785,0.000
1621214494.519,-34.668,-33.691,-26.367,-32.715,0.000
1621214494.523,-20.020,-37.598,-25.391,-34.180,0.000
1621214494.527,-12.695,-38.086,-23.926,-28.320,0.000
1621214494.531,-36.133,-50.293,-27.344,-33.691,0.000
1621214494.534,-52.246,-60.547,-28.320,-46.875,0.000
1621214494.538,-28.809,-45.898,-32.227,-39.551,0.000
1621214494.542,-5.371,-32.227,-36.621,-32.227,0.000
1621214494.547,-12.695,-28.320,-37.109,-35.645,0.000
1621214494.550,-24.902,-30.273,-41.016,-36.133,0.000
1621214494.554,-24.902,-48.340,-42.480,-32.227,0.000
1621214494.558,-27.832,-60.547,-37.598,-32.227,0.000
1621214494.562,-41.504,-48.340,-38.086,-40.039,0.000
1621214494.566,-50.781,-32.227,-39.551,-42.480,0.000
1621214494.570,-47.852,-31.250,-40.527,-43.945,0.000
1621214494.574,-43.945,-39.062,-41.016,-41.992,0.000
1621214494.577,-47.363,-42.969,-43.457,-43.945,0.000
1621214494.581,-49.805,-40.527,-44.922,-50.293,0.000
1621214494.585,-34.668,-31.250,-41.992,-47.852,0.000
1621214494.589,-23.926,-31.250,-41.016,-41.504,0.000
1621214494.593,-21.973,-37.598,-38.086,-41.016,0.000
1621214494.597,-9.277,-37.109,-36.133,-48.340,0.000
1621214494.601,-5.859,-44.922,-35.645,-49.805,0.000
1621214494.605,-23.926,-53.223,-32.715,-43.457,0.000
1621214494.609,-27.344,-41.504,-34.180,-40.527,0.000
1621214494.613,-32.715,-30.273,-33.203,-37.598,0.000
1621214494.617,-34.180,-41.016,-37.109,-45.898,0.000
1621214494.620,-18.555,-42.969,-43.457,-40.527,0.000
1621214494.624,-11.719,-30.273,-31.738,-20.020,0.000
1621214494.628,-20.020,-31.738,-23.438,-7.324,0.000
1621214494.632,-31.738,-37.109,-21.484,-9.766,0.000
1621214494.636,-46.387,-33.203,-20.508,-29.297,0.000
1621214494.640,-57.617,-31.738,-19.043,-31.738,0.000
1621214494.644,-50.293,-40.039,-22.461,-23.438,0.000
1621214494.648,-37.598,-45.410,-30.273,-25.391,0.000
1621214494.652,-15.625,-38.574,-25.879,-16.113,0.000
1621214494.656,-0.977,-34.180,-22.949,-9.277,0.000
1621214494.660,-8.789,-40.527,-27.832,-14.648,0.000
1621214494.663,-19.531,-44.922,-29.297,-26.367,0.000
1621214494.667,-14.160,-41.016,-28.809,-39.551,0.000
1621214494.671,-4.883,-32.227,-26.367,-34.180,0.000
1621214494.675,10.742,-17.578,-22.949,-18.555,0.000
1621214494.679,12.695,-15.625,-24.902,-20.996,0.000
1621214494.683,-46.387,-29.785,-27.832,-26.367,0.000
1621214494.687,-62.500,-42.480,-23.438,-13.672,0.000
1621214494.691,-29.785,-37.598,-23.926,-2.441,0.000
1621214494.695,-21.484,-35.645,-26.367,0.000,0.000
1621214494.699,-15.625,-40.527,-27.832,-18.555,0.000
1621214494.703,-7.324,-47.363,-28.809,-21.484,0.000
1621214494.706,0.977,-41.504,-28.320,-3.906,0.000
1621214494.710,-6.348,-38.086,-34.180,1.465,0.000
1621214494.714,-16.602,-40.527,-32.715,2.930,0.000
1621214494.718,-14.648,-23.926,-28.809,-2.930,0.000
1621214494.722,-24.414,-25.879,-36.133,-7.812,0.000
1621214494.726,-20.996,-24.902,-38.574,-4.883,0.000
1621214494.730,11.230,-12.207,-33.691,-0.488,0.000
1621214494.734,13.672,-21.973,-37.109,-21.484,0.000
1621214494.738,12.207,-36.621,-50.293,-47.852,0.000
1621214494.742,10.254,-34.180,-50.293,-62.988,0.000
1621214494.746,13.672,-29.297,-40.527,-56.152,0.000
1621214494.750,0.977,-40.527,-41.016,-52.734,0.000
1621214494.753,-19.043,-52.734,-40.039,-50.293,0.000
1621214494.757,-25.879,-46.875,-34.668,-33.203,0.000
1621214494.761,-8.789,-31.250,-33.203,-26.367,0.000
1621214494.765,4.883,-34.668,-33.691,-29.297,0.000
1621214494.769,-21.484,-46.875,-34.668,-19.043,0.000
1621214494.773,-62.500,-41.016,-35.156,-9.766,0.000
1621214494.777,-52.246,-27.832,-35.156,-7.812,0.000
1621214494.781,-49.805,-31.250,-43.457,-0.977,0.000
1621214494.785,-44.434,-37.109,-41.992,-9.766,0.000
1621214494.789,-9.277,-36.621,-35.645,-13.184,0.000
1621214494.793,-8.789,-37.109,-36.133,-1.465,0.000
1621214494.796,-8.789,-36.621,-40.527,-3.418,0.000
1621214494.800,-13.672,-42.969,-37.109,0.977,0.000
1621214494.804,-26.855,-42.969,-33.691,2.930,0.000
1621214494.808,-14.160,-28.809,-40.527,1.953,0.000
1621214494.812,4.883,-24.414,-35.156,11.230,0.000
1621214494.816,12.695,-20.996,-35.156,5.371,0.000
1621214494.820,8.301,-26.855,-43.945,-10.254,0.000
1621214494.824,9.277,-37.109,-30.273,-35.645,0.000
1621214494.828,7.812,-33.691,-15.137,-50.781,0.000
1621214494.832,-1.465,-34.668,-22.461,-55.176,0.000
1621214494.836,-2.441,-33.203,-24.414,-48.828,0.000
1621214494.839,-9.277,-34.668,-22.949,-39.551,0.000
1621214494.843,-34.180,-47.852,-25.391,-55.664,0.000
1621214494.847,-48.828,-45.410,-23.438,-63.965,0.000
1621214494.851,-28.320,-47.852,-24.902,-55.176,0.000
1621214494.855,-44.922,-46.387,-26.855,-55.664,0.000
1621214494.859,-62.988,-28.320,-20.508,-80.078,0.000
1621214494.863,-71.777,-35.156,-14.648,-103.516,0.000
1621214494.867,-107.910,-41.504,-17.090,-109.375,0.000
1621214494.870,-105.469,-39.062,-14.648,-89.844,0.000
1621214494.875,-103.027,-41.016,-13.672,-76.660,0.000
1621214494.879,-126.953,-37.109,-16.602,-98.633,0.000
1621214494.882,-128.418,-46.387,-19.043,-116.211,0.000
1621214494.886,-143.066,-58.105,-24.414,-126.953,0.000
1621214494.890,-158.691,-52.734,-20.996,-119.629,0.000
1621214494.894,-148.438,-58.594,-16.602,-113.770,0.000
1621214494.898,-155.273,-66.406,-24.902,-137.207,0.000
1621214494.902,-179.199,-68.848,-18.066,-150.391,0.000
1621214494.906,-185.059,-69.824,-18.555,-178.223,0.000
1621214494.910,-173.828,-66.895,-16.113,-202.637,0.000
1621214494.913,-168.945,-72.266,-0.977,-186.035,0.000
1621214494.917,-192.871,-78.613,3.906,-170.898,0.000
1621214494.922,-203.613,-76.172,4.395,-171.875,0.000
1621214494.925,-198.242,-67.871,2.930,-180.664,0.000
1621214494.929,-207.520,-68.359,6.836,-180.664,0.000
1621214494.933,-209.473,-79.102,9.277,-167.969,0.000
1621214494.937,-218.750,-85.938,10.254,-165.527,0.000
1621214494.941,-220.703,-86.914,14.648,-165.527,0.000
1621214494.945,-227.051,-87.402,17.090,-151.855,0.000
1621214494.949,-224.121,-104.004,21.973,-167.480,0.000
1621214494.953,-218.262,-104.492,22.461,-187.988,0.000
1621214494.956,-208.008,-87.891,24.902,-157.715,0.000
1621214494.960,-203.613,-85.938,25.391,-151.855,0.000
1621214494.964,-206.543,-83.984,24.414,-166.992,0.000
1621214494.968,-199.707,-82.520,24.414,-157.227,0.000
1621214494.972,-193.359,-91.309,26.855,-127.441,0.000
1621214494.976,-184.082,-87.891,26.367,-116.211,0.000
1621214494.980,-168.945,-86.914,22.461,-143.555,0.000
1621214494.984,-162.598,-92.285,25.391,-159.180,0.000
1621214494.988,-146.973,-85.938,29.297,-163.574,0.000
1621214494.992,-132.324,-86.914,26.855,-144.043,0.000
1621214494.996,-129.883,-86.426,25.391,-121.582,0.000
1621214494.999,-135.742,-83.984,26.855,-127.441,0.000
1621214495.003,-138.672,-81.543,25.391,-111.816,0.000
1621214495.007,-126.953,-85.938,15.625,-100.098,0.000
1621214495.011,-141.602,-87.402,12.695,-97.168,0.000
1621214495.015,-152.344,-72.754,19.531,-83.984,0.000
1621214495.019,-148.438,-70.801,17.578,-88.379,0.000
1621214495.023,-144.043,-77.637,14.160,-86.914,0.000
1621214495.027,-138.672,-75.195,11.230,-77.148,0.000
1621214495.031,-114.746,-75.684,8.789,-88.379,0.000
1621214495.035,-121.094,-82.031,16.113,-104.492,0.000
1621214495.039,-130.371,-78.125,13.672,-96.191,0.000
1621214495.042,-116.699,-74.707,3.418,-101.562,0.000
1621214495.046,-121.582,-77.637,0.488,-111.816,0.000
1621214495.050,-138.672,-85.938,0.977,-102.539,0.000
1621214495.054,-118.164,-92.285,4.395,-90.332,0.000
1621214495.058,-97.656,-87.402,4.883,-84.473,0.000
1621214495.062,-89.355,-83.496,1.465,-79.102,0.000
1621214495.066,-92.773,-78.125,-3.906,-86.426,0.000
1621214495.070,-107.422,-69.824,-2.930,-90.820,0.000
1621214495.074,-112.305,-72.266,0.488,-79.590,0.000
1621214495.078,-122.559,-77.148,-1.953,-69.824,0.000
1621214495.082,-109.863,-73.730,-5.371,-78.613,0.000
1621214495.085,-99.121,-74.219,-5.371,-82.031,0.000
1621214495.089,-102.539,-78.125,-5.371,-77.637,0.000
1621214495.093,-105.957,-80.078,-3.906,-76.172,0.000
1621214495.097,-98.633,-77.148,-3.418,-64.941,0.000
1621214495.101,-79.590,-71.289,-4.883,-68.359,0.000
1621214495.105,-77.148,-70.312,-6.836,-76.660,0.000
1621214495.109,-83.008,-67.383,-10.742,-55.664,0.000
1621214495.113,-71.777,-70.312,-7.324,-46.387,0.000
1621214495.117,-75.195,-81.055,-7.324,-61.035,0.000
1621214495.121,-94.238,-74.219,-10.254,-60.547,0.000
1621214495.125,-80.078,-65.430,-5.859,-42.480,0.000
1621214495.128,-65.430,-64.453,-6.348,-49.805,0.000
1621214495.132,-81.055,-62.012,-9.766,-63.477,0.000
1621214495.136,-71.777,-62.012,-11.230,-57.129,0.000
1621214495.140,-52.246,-57.129,-14.160,-49.805,0.000
1621214495.144,-58.105,-53.223,-16.602,-62.012,0.000
1621214495.148,-63.965,-53.711,-19.043,-71.777,0.000
1621214495.152,-61.523,-60.547,-19.531,-64.453,0.000
1621214495.156,-60.059,-60.059,-23.926,-52.734,0.000
1621214495.160,-63.965,-59.570,-22.461,-55.664,0.000
1621214495.164,-53.711,-52.734,-17.090,-73.730,0.000
1621214495.168,-41.504,-37.109,-14.160,-68.848,0.000
1621214495.171,-73.242,-38.574,-10.742,-56.152,0.000
1621214495.175,-90.332,-52.734,-15.625,-56.152,0.000
1621214495.179,-60.547,-56.152,-19.531,-56.152,0.000
1621214495.183,-55.176,-52.734,-20.020,-54.688,0.000
1621214495.187,-50.293,-49.805,-17.090,-53.223,0.000
1621214495.191,-50.293,-48.340,-17.578,-37.109,0.000
1621214495.195,-48.340,-50.293,-19.531,-25.391,0.000
1621214495.199,-46.875,-57.617,-20.508,-19.531,0.000
1621214495.203,-53.711,-59.082,-22.461,-13.672,0.000
1621214495.207,-44.922,-39.551,-21.973,-17.578,0.000
1621214495.211,-38.574,-34.180,-23.926,-16.113,0.000
1621214495.215,-50.293,-41.016,-22.949,-47.852,0.000
1621214495.218,-60.059,-46.875,-21.484,-100.586,0.000
1621214495.222,-69.336,-46.387,-20.508,-94.238,0.000
1621214495.226,-61.523,-44.434,-19.043,-67.871,0.000
1621214495.230,-53.223,-47.363,-21.484,-83.984,0.000
1621214495.234,-55.176,-44.434,-20.996,-94.727,0.000
1621214495.238,-56.152,-48.340,-16.113,-76.660,0.000
1621214495.242,-69.336,-51.758,-20.020,-64.453,0.000
1621214495.246,-63.477,-53.711,-25.391,-54.199,0.000
1621214495.250,-53.711,-61.035,-22.949,-45.898,0.000
1621214495.254,-53.223,-48.828,-20.508,-39.062,0.000
1621214495.258,-66.895,-44.434,-24.414,-26.855,0.000
1621214495.261,-60.059,-56.152,-22.461,-11.719,0.000
1621214495.265,-40.527,-53.711,-20.996,-9.277,0.000
1621214495.269,-30.762,-42.480,-26.367,-17.090,0.000
1621214495.273,-39.062,-39.062,-26.367,-24.414,0.000
1621214495.277,-41.016,-36.621,-22.461,-33.691,0.000
1621214495.281,-36.621,-35.156,-20.508,-75.684,0.000
1621214495.285,-33.691,-36.621,-20.508,-98.633,0.000
1621214495.289,-42.969,-43.945,-17.578,-71.777,0.000
1621214495.292,-34.668,-47.363,-13.184,-45.898,0.000
1621214495.297,-40.527,-43.945,-10.742,-41.016,0.000
1621214495.301,-57.617,-42.480,-16.602,-48.828,0.000
1621214495.304,-33.203,-45.410,-19.043,-54.199,0.000
1621214495.308,-39.062,-54.199,-13.184,-37.109,0.000
1621214495.312,-49.805,-48.828,-14.160,-23.926,0.000
1621214495.316,-49.805,-41.016,-13.672,-28.320,0.000
1621214495.320,-45.410,-46.387,-10.254,-27.344,0.000
1621214495.324,-32.715,-41.016,-11.719,-8.789,0.000
1621214495.328,-39.062,-39.062,-13.184,-16.113,0.000
1621214495.332,-53.223,-45.410,-15.625,-29.297,0.000
1621214495.335,-38.086,-41.016,-12.695,-11.230,0.000
1621214495.339,-48.340,-35.645,-8.301,8.301,0.000
1621214495.344,-54.199,-35.156,-11.230,15.625,0.000
1621214495.347,-24.414,-37.109,-9.766,21.484,0.000
1621214495.351,-35.156,-40.527,-11.230,20.508,0.000
1621214495.355,-34.180,-40.039,-19.531,-19.043,0.000
1621214495.359,-11.719,-33.203,-20.020,-92.773,0.000
1621214495.363,-30.762,-38.574,-19.043,-123.047,0.000
1621214495.367,-28.320,-48.828,-19.043,-114.746,0.000
1621214495.371,3.418,-44.922,-15.625,-91.309,0.000
1621214495.375,-9.766,-41.504,-15.625,-58.594,0.000
1621214495.378,-36.133,-41.992,-15.625,-48.340,0.000
1621214495.382,-25.391,-35.156,-17.578,-34.180,0.000
1621214495.386,-28.809,-30.273,-17.578,-26.367,0.000
1621214495.390,-34.180,-36.621,-13.672,-35.156,0.000
1621214495.394,-31.738,-36.133,-16.602,-29.297,0.000
1621214495.398,-51.758,-34.668,-23.926,-31.738,0.000
1621214495.402,-71.289,-35.156,-22.461,-35.645,0.000
1621214495.406,-63.477,-35.156,-20.020,-32.715,0.000
1621214495.410,-54.688,-36.133,-17.090,-23.926,0.000
1621214495.414,-51.758,-38.574,-14.160,-29.297,0.000
1621214495.418,-36.133,-45.898,-16.113,-46.387,0.000
1621214495.421,-32.715,-45.410,-19.531,-44.922,0.000
1621214495.425,-31.738,-40.527,-21.484,-30.762,0.000
1621214495.429,-29.785,-40.039,-21.484,-24.414,0.000
1621214495.433,-34.668,-33.691,-18.555,-33.203,0.000
1621214495.437,-18.066,-37.598,-19.043,-30.273,0.000
1621214495.441,-20.020,-41.992,-20.996,-25.879,0.000
1621214495.445,-17.090,-37.598,-22.949,-37.598,0.000
1621214495.449,-16.113,-39.551,-25.391,-53.223,0.000
1621214495.453,-22.461,-43.457,-21.484,-50.293,0.000
1621214495.457,-9.766,-51.270,-14.160,-34.668,0.000
1621214495.461,-10.254,-46.875,-13.672,-22.461,0.000
1621214495.464,0.000,-29.785,-14.160,-21.484,0.000
1621214495.468,-16.113,-26.367,-14.648,-31.738,0.000
1621214495.472,-43.457,-34.180,-16.602,-30.762,0.000
1621214495.476,-23.438,-31.738,-15.625,-25.879,0.000
1621214495.480,-34.180,-31.738,-17.578,-36.621,0.000
1621214495.484,-62.500,-36.621,-17.578,-41.504,0.000
1621214495.488,-53.223,-34.180,-17.090,-40.039,0.000
1621214495.492,-54.199,-29.297,-19.531,-31.738,0.000
1621214495.496,-68.359,-29.785,-18.555,-39.062,0.000
1621214495.500,-43.457,-32.715,-12.695,-36.621,0.000
1621214495.504,-32.227,-35.156,-15.137,-29.297,0.000
1621214495.507,-35.645,-36.621,-15.137,-22.461,0.000
1621214495.511,-64.453,-40.039,-13.184,-23.926,0.000
1621214495.515,-69.824,-36.133,-11.719,-41.992,0.000
1621214495.519,-37.109,-32.227,-9.277,-44.922,0.000
1621214495.523,-21.973,-30.762,-13.672,-46.387,0.000
1621214495.527,-3.906,-22.949,-13.184,-59.082,0.000
1621214495.531,-9.277,-23.438,-12.695,-67.383,0.000
1621214495.535,-21.484,-36.621,-12.207,-54.688,0.000
1621214495.539,-10.742,-36.133,-12.207,-38.574,0.000
1621214495.543,-17.090,-36.133,-17.090,-24.902,0.000
1621214495.547,-18.066,-42.969,-15.137,-28.320,0.000
1621214495.551,6.836,-36.621,-7.812,-30.762,0.000
1621214495.554,-0.977,-31.738,-5.859,-26.367,0.000
1621214495.558,-38.086,-35.645,-7.812,-33.691,0.000
1621214495.562,-35.645,-41.504,-12.207,-26.367,0.000
1621214495.566,-34.668,-41.016,-15.137,-19.531,0.000
1621214495.570,-53.223,-38.086,-11.719,-11.719,0.000
1621214495.574,-36.621,-41.992,-18.066,-9.277,0.000
1621214495.578,-38.086,-47.363,-20.020,-21.484,0.000
1621214495.582,-40.039,-46.875,-13.184,-29.785,0.000
1621214495.586,-31.250,-40.039,-9.277,-37.598,0.000
1621214495.590,-24.414,-38.574,-8.301,-32.715,0.000
1621214495.594,-31.250,-38.574,-15.625,-30.762,0.000
1621214495.597,-29.785,-45.410,-17.578,-41.016,0.000
1621214495.601,-57.617,-41.504,-9.766,-46.387,0.000
1621214495.605,-54.688,-37.109,-12.207,-27.344,0.000
1621214495.609,4.395,-42.969,-12.695,-13.672,0.000
1621214495.613,8.789,-35.645,-9.277,-24.414,0.000
1621214495.617,-12.207,-33.203,-10.742,-33.203,0.000
1621214495.621,-34.668,-38.574,-10.254,-26.855,0.000
1621214495.625,-32.715,-39.551,-10.254,-28.320,0.000
1621214495.629,-38.574,-39.062,-6.836,-30.762,0.000
1621214495.633,-28.809,-39.062,-5.859,-20.508,0.000
1621214495.637,-22.949,-34.180,-15.137,-17.578,0.000
1621214495.640,-40.039,-30.273,-20.020,-19.043,0.000
1621214495.644,-37.598,-37.109,-21.484,-23.926,0.000
1621214495.648,-31.738,-39.062,-21.973,-40.527,0.000
1621214495.652,-22.949,-28.809,-20.508,-41.016,0.000
1621214495.656,-20.020,-30.273,-22.949,-41.992,0.000
1621214495.660,-32.227,-31.738,-26.855,-41.992,0.000
1621214495.664,-28.320,-31.250,-20.508,-33.203,0.000
1621214495.668,-22.461,-32.227,-15.137,-35.645,0.000
1621214495.672,-29.785,-28.809,-17.090,-33.203,0.000
1621214495.676,-20.996,-34.180,-19.043,-23.926,0.000
1621214495.680,-34.180,-39.062,-15.137,-20.996,0.000
1621214495.683,-53.711,-40.039,-18.066,-30.273,0.000
1621214495.687,-51.270,-39.062,-24.902,-30.273,0.000
1621214495.691,-31.738,-36.621,-23.926,-28.809,0.000
1621214495.695,-15.137,-38.086,-22.461,-22.949,0.000
1621214495.699,-19.043,-43.945,-22.461,-21.973,0.000
1621214495.703,-46.875,-41.504,-20.996,-30.273,0.000
1621214495.707,-45.410,-41.504,-17.090,-18.066,0.000
1621214495.711,-39.551,-51.758,-17.578,-19.531,0.000
1621214495.714,-45.898,-46.875,-14.648,-26.367,0.000
1621214495.719,-20.996,-38.086,-11.230,-20.020,0.000
1621214495.723,-35.645,-38.086,-10.254,-17.090,0.000
1621214495.726,-42.480,-39.062,-8.789,-24.414,0.000
1621214495.730,-33.691,-38.086,-15.137,-33.203,0.000
1621214495.734,-29.785,-39.551,-24.414,-22.949,0.000
1621214495.738,-15.137,-43.945,-23.926,-13.672,0.000
1621214495.742,-18.066,-42.480,-20.996,-0.977,0.000
1621214495.746,-42.969,-40.527,-23.926,-4.883,0.000
1621214495.750,-52.734,-37.109,-24.414,-20.020,0.000
1621214495.754,-39.551,-25.879,-29.297,-20.508,0.000
1621214495.757,-8.301,-18.555,-31.250,-22.949,0.000
1621214495.761,-5.859,-15.137,-21.973,-22.461,0.000
1621214495.766,-1.465,-14.648,-17.578,-30.762,0.000
1621214495.769,-11.230,-19.531,-23.926,-28.809,0.000
1621214495.773,-41.016,-33.203,-28.809,-19.531,0.000
1621214495.777,-15.137,-33.203,-19.531,-13.672,0.000
1621214495.781,-13.184,-31.738,-13.184,-20.508,0.000
1621214495.785,-30.273,-29.785,-12.207,-27.344,0.000
1621214495.789,-31.738,-24.902,-9.766,-17.090,0.000
1621214495.793,-31.738,-31.250,-7.324,-16.113,0.000
1621214495.796,-19.531,-37.598,-1.465,-26.367,0.000
1621214495.800,-20.508,-36.621,-3.906,-34.180,0.000
1621214495.804,-18.555,-39.551,-10.742,-29.297,0.000
1621214495.808,-25.879,-41.504,-13.672,-33.691,0.000
1621214495.812,-27.344,-34.668,-9.277,-30.273,0.000
1621214495.816,-26.367,-35.156,-9.277,-26.367,0.000
1621214495.820,-23.926,-38.574,-11.719,-34.668,0.000
1621214495.824,-27.832,-34.668,-2.930,-32.227,0.000
1621214495.828,-40.527,-32.715,-3.906,-30.762,0.000
1621214495.832,-23.926,-34.180,-6.348,-42.969,0.000
1621214495.836,-16.602,-38.574,-2.441,-46.875,0.000
1621214495.840,-28.320,-37.109,-1.953,-33.691,0.000
1621214495.843,-28.809,-31.738,0.000,-31.738,0.000
1621214495.847,-13.672,-35.645,-1.953,-29.785,0.000
1621214495.851,-33.691,-42.969,-7.324,-29.785,0.000
1621214495.855,-47.852,-47.852,-4.395,-31.738,0.000
1621214495.859,-12.695,-52.734,-2.441,-28.809,0.000
1621214495.863,-23.926,-52.734,-5.859,-39.551,0.000
1621214495.867,-37.109,-48.340,-9.277,-41.504,0.000
1621214495.871,-44.434,-40.527,-15.625,-25.879,0.000
1621214495.875,-39.062,-37.598,-11.719,-18.066,0.000
1621214495.879,-31.250,-41.504,-7.812,-13.184,0.000
1621214495.883,-31.250,-43.457,-9.277,-4.395,0.000
1621214495.886,-38.574,-35.156,-0.977,1.465,0.000
1621214495.890,-46.387,-31.250,3.418,-4.883,0.000
1621214495.894,-35.645,-27.832,2.441,-47.852,0.000
1621214495.898,-26.855,-21.484,0.488,-87.402,0.000
1621214495.902,-27.832,-26.367,0.977,-76.660,0.000
1621214495.906,-31.250,-38.086,3.418,-53.223,0.000
1621214495.910,-0.488,-36.133,2.441,-31.738,0.000
1621214495.914,-5.859,-34.180,-2.930,-28.809,0.000
1621214495.918,-20.508,-38.574,-1.465,-28.320,0.000
1621214495.922,-13.672,-37.109,2.930,-22.461,0.000
1621214495.926,-24.902,-37.598,-1.953,-9.277,0.000
1621214495.929,-24.414,-36.621,-4.883,-5.859,0.000
1621214495.933,-20.020,-36.133,-5.371,-20.508,0.000
1621214495.937,-18.066,-33.203,-4.883,-20.020,0.000
1621214495.941,-21.484,-29.785,-5.371,-20.508,0.000
1621214495.945,-31.738,-30.273,-4.883,-21.973,0.000
1621214495.949,-28.809,-39.551,-4.883,-26.367,0.000
1621214495.953,-40.039,-42.480,-9.277,-36.621,0.000
1621214495.957,-49.316,-40.039,-7.812,-39.551,0.000
1621214495.961,-26.367,-41.992,-7.812,-36.621,0.000
1621214495.965,-28.809,-48.340,-10.254,-37.598,0.000
1621214495.969,-37.109,-48.828,-12.695,-42.969,0.000
1621214495.973,-45.898,-40.527,-17.578,-42.480,0.000
1621214495.976,-38.086,-26.855,-11.230,-39.551,0.000
1621214495.980,-29.297,-25.391,-4.883,-32.715,0.000
1621214495.984,-27.832,-31.250,-8.789,-39.551,0.000
1621214495.988,-14.160,-28.809,-3.418,-34.668,0.000
1621214495.992,-10.254,-29.785,-0.488,-27.832,0.000
1621214495.996,-6.836,-35.645,0.488,-23.926,0.000
1621214496.000,-19.531,-38.086,-0.488,-19.043,0.000
1621214496.004,-28.809,-34.180,-5.859,-25.391,0.000
1621214496.008,-16.602,-38.574,-5.859,-21.484,0.000
1621214496.012,-35.156,-36.133,-7.812,-9.766,0.000
1621214496.016,-51.758,-31.250,-6.836,-18.066,0.000
1621214496.019,-44.434,-35.156,-7.324,-24.414,0.000
1621214496.023,-34.668,-36.621,-11.719,-19.043,0.000
1621214496.027,-34.668,-37.109,-11.719,-23.438,0.000
1621214496.031,-34.668,-38.086,-9.277,-26.367,0.000
1621214496.035,-40.527,-36.621,-5.371,-29.785,0.000
1621214496.039,-9.277,-32.715,-2.441,-29.785,0.000
1621214496.043,-19.531,-36.133,-3.418,-31.738,0.000
1621214496.047,-29.297,-40.039,-4.883,-31.250,0.000
1621214496.051,-1.465,-38.574,-1.953,-30.762,0.000
1621214496.055,-4.883,-33.691,0.000,-36.621,0.000
1621214496.059,-0.488,-31.738,1.953,-33.691,0.000
1621214496.062,-4.883,-33.203,1.465,-30.762,0.000
1621214496.066,-1.465,-37.598,0.488,-37.109,0.000
1621214496.070,-7.324,-35.645,-5.371,-42.480,0.000
1621214496.074,-24.414,-35.645,-6.348,-35.645,0.000
1621214496.078,-25.391,-36.621,3.418,-27.344,0.000
1621214496.082,-39.551,-36.133,1.953,-28.320,0.000
1621214496.086,-61.035,-38.086,0.488,-29.785,0.000
1621214496.090,-31.738,-32.715,1.953,-21.484,0.000
1621214496.094,-11.719,-29.785,1.953,-20.508,0.000
1621214496.098,-21.973,-36.133,0.000,-29.785,0.000
1621214496.102,-29.297,-36.621,-6.348,-26.367,0.000
1621214496.105,-31.250,-33.203,-5.859,-18.555,0.000
1621214496.109,-34.668,-34.180,-1.953,-12.695,0.000
1621214496.113,-36.133,-40.527,-3.418,-13.672,0.000
1621214496.117,-27.832,-41.504,-2.441,-29.785,0.000
1621214496.121,-9.766,-38.574,-4.395,-38.086,0.000
1621214496.125,-19.043,-31.738,-4.883,-39.551,0.000
1621214496.129,-18.555,-41.992,-5.371,-51.758,0.000
1621214496.133,-28.809,-48.828,-6.348,-50.293,0.000
1621214496.136,-39.551,-39.062,-5.371,-41.016,0.000
1621214496.141,-9.766,-40.527,1.465,-31.738,0.000
1621214496.145,-2.930,-43.457,2.441,-28.320,0.000
1621214496.148,-13.184,-42.480,-6.348,-37.598,0.000
1621214496.152,-20.020,-42.480,-9.277,-39.551,0.000
1621214496.156,-20.020,-39.062,-7.324,-35.156,0.000
1621214496.160,-18.066,-44.434,-1.953,-34.180,0.000
1621214496.164,-20.996,-46.875,-3.418,-37.109,0.000
1621214496.168,-36.621,-40.527,-0.488,-37.109,0.000
1621214496.172,-44.922,-44.922,-0.488,-29.785,0.000
1621214496.176,-34.668,-42.969,-10.742,-26.855,0.000
1621214496.179,-47.363,-36.621,-11.230,-35.645,0.000
1621214496.183,-42.969,-30.762,-6.836,-36.133,0.000
1621214496.188,-18.555,-32.715,-7.324,-34.668,0.000
1621214496.191,-14.160,-37.109,-11.719,-31.738,0.000
1621214496.195,-30.273,-33.691,-11.230,-28.809,0.000
1621214496.199,-47.852,-40.039,-5.859,-30.762,0.000
1621214496.203,-39.551,-38.086,-3.906,-32.227,0.000
1621214496.207,-28.320,-29.297,-3.906,-25.879,0.000
1621214496.211,-28.320,-36.133,-3.418,-15.625,0.000
1621214496.215,-23.926,-45.410,-0.977,-25.391,0.000
1621214496.219,-30.762,-42.480,-2.441,-32.227,0.000
1621214496.222,-26.855,-35.645,-4.395,-18.555,0.000
1621214496.226,-31.250,-34.668,-8.789,-19.531,0.000
1621214496.230,-37.109,-37.598,-12.207,-23.438,0.000
1621214496.234,-20.508,-41.016,-9.766,-27.344,0.000
1621214496.238,-17.090,-51.758,-7.324,-37.598,0.000
1621214496.242,-14.648,-49.316,-7.324,-38.574,0.000
1621214496.246,-33.203,-37.598,-6.348,-35.156,0.000
1621214496.250,-39.062,-36.133,2.441,-30.762,0.000
1621214496.254,-24.414,-40.039,6.348,-26.367,0.000
1621214496.258,-26.367,-44.434,2.441,-24.414,0.000
1621214496.262,-35.645,-36.133,0.000,-27.344,0.000
1621214496.265,-25.879,-25.879,-0.488,-33.203,0.000
1621214496.269,-26.855,-27.344,-5.859,-42.480,0.000
1621214496.273,-40.039,-33.691,-9.277,-44.434,0.000
1621214496.277,-58.105,-42.969,-7.812,-35.645,0.000
1621214496.281,-72.754,-46.875,-8.789,-41.992,0.000
1621214496.285,-47.363,-45.410,-9.277,-41.016,0.000
1621214496.289,-35.645,-43.457,-8.789,-36.133,0.000
1621214496.293,-30.762,-45.898,-11.230,-38.086,0.000
1621214496.297,-39.062,-45.410,-13.184,-34.668,0.000
1621214496.301,-43.457,-41.504,-15.625,-31.250,0.000
1621214496.305,-31.738,-38.574,-11.230,-28.809,0.000
1621214496.309,-36.621,-41.504,-10.742,-25.879,0.000
1621214496.312,-11.719,-39.551,-11.230,-20.020,0.000
1621214496.316,-15.137,-37.109,-6.348,-26.855,0.000
1621214496.320,-33.691,-44.922,-6.836,-32.715,0.000
1621214496.324,-28.809,-49.316,-12.695,-36.621,0.000
1621214496.328,-25.879,-47.852,-16.113,-45.898,0.000
1621214496.332,-44.922,-41.504,-13.184,-56.152,0.000
1621214496.336,-53.711,-41.504,-12.207,-54.688,0.000
1621214496.340,-44.434,-43.457,-7.812,-51.758,0.000
1621214496.344,-41.504,-43.945,-4.883,-51.758,0.000
1621214496.348,-24.902,-53.223,-10.254,-41.504,0.000
1621214496.352,-33.691,-50.293,-16.602,-49.805,0.000
1621214496.355,-37.598,-38.574,-11.719,-52.246,0.000
1621214496.359,-35.645,-40.039,-6.348,-40.527,0.000
1621214496.363,-40.527,-40.039,-1.465,-41.016,0.000
1621214496.367,-41.016,-39.062,-2.441,-39.062,0.000
1621214496.371,-30.762,-40.039,-10.254,-32.715,0.000
1621214496.375,-29.297,-37.109,-10.254,-20.508,0.000
1621214496.379,-40.039,-35.645,-3.906,-25.391,0.000
1621214496.383,-36.621,-41.016,-6.836,-35.156,0.000
1621214496.387,-54.688,-40.527,-10.254,-30.762,0.000
1621214496.391,-42.480,-40.527,-10.254,-18.066,0.000
1621214496.395,-22.949,-40.527,-11.230,-8.789,0.000
1621214496.398,-43.457,-37.598,-13.184,-18.066,0.000
1621214496.402,-30.762,-38.574,-16.602,-25.391,0.000
1621214496.406,-22.461,-37.598,-15.625,-19.043,0.000
1621214496.410,-23.438,-32.715,-13.184,-17.090,0.000
1621214496.414,-4.883,-33.691,-10.742,-15.625,0.000
1621214496.418,-4.395,-34.668,-8.301,-15.137,0.000
1621214496.422,-19.531,-33.203,-6.348,-27.344,0.000
1621214496.426,-27.832,-35.156,-2.441,-23.438,0.000
1621214496.430,-22.949,-40.039,0.000,-14.160,0.000
1621214496.434,-15.137,-44.434,-6.348,-28.320,0.000
1621214496.438,-23.926,-44.922,-10.742,-28.320,0.000
1621214496.441,-27.832,-46.387,-8.301,-28.809,0.000
1621214496.445,-28.320,-43.945,-7.324,-34.180,0.000
1621214496.449,-28.320,-36.133,-5.859,-34.668,0.000
1621214496.453,-23.926,-34.180,-9.277,-45.898,0.000
1621214496.457,-33.691,-36.621,-11.719,-38.574,0.000
1621214496.461,-37.109,-35.645,-11.230,-32.227,0.000
1621214496.465,-28.320,-37.109,-15.625,-36.133,0.000
1621214496.469,-29.297,-40.527,-9.277,-36.133,0.000
1621214496.473,-32.227,-41.016,0.488,-22.461,0.000
1621214496.477,-33.691,-45.410,0.000,-10.254,0.000
1621214496.481,-29.785,-47.363,-4.395,-19.043,0.000
1621214496.484,-37.109,-44.922,-4.395,-23.438,0.000
1621214496.488,-33.691,-43.945,-1.465,-9.277,0.000
1621214496.492,-33.203,-41.016,-1.465,-5.859,0.000
1621214496.496,-39.551,-39.062,-3.418,-11.719,0.000
1621214496.500,-21.484,-40.527,-6.348,-13.672,0.000
1621214496.504,-14.648,-37.109,-1.953,-7.324,0.000
1621214496.508,-8.301,-37.598,2.930,6.348,0.000
1621214496.512,7.324,-36.621,2.441,7.324,0.000
1621214496.516,6.348,-29.297,-5.859,-7.812,0.000
1621214496.520,-4.395,-31.250,-10.742,-11.230,0.000
1621214496.524,-3.418,-34.180,-10.742,-3.906,0.000
1621214496.527,-9.277,-36.133,-9.277,6.836,0.000
1621214496.531,-33.203,-37.109,-6.348,-14.648,0.000
1621214496.535,-33.203,-31.738,-0.488,-44.434,0.000
1621214496.539,-19.043,-30.273,-0.488,-48.828,0.000
1621214496.543,-12.695,-31.250,-4.395,-62.988,0.000
1621214496.547,-10.742,-38.086,-1.465,-62.988,0.000
1621214496.551,-10.254,-44.434,-1.953,-47.363,0.000
1621214496.555,-11.230,-44.434,-5.859,-37.598,0.000
1621214496.558,-27.832,-43.457,-5.859,-29.297,0.000
1621214496.563,-27.832,-42.480,-5.859,-37.109,0.000
1621214496.567,-32.715,-42.969,-5.859,-50.781,0.000
1621214496.570,-38.086,-46.387,-10.742,-49.316,0.000
1621214496.574,-27.344,-40.039,-13.184,-46.387,0.000
1621214496.578,-37.109,-38.574,-12.207,-32.227,0.000
1621214496.582,-36.621,-49.316,-16.113,-26.367,0.000
1621214496.586,-41.016,-49.805,-16.113,-37.109,0.000
1621214496.590,-53.711,-45.898,-18.066,-37.109,0.000
1621214496.594,-50.781,-38.086,-20.020,-27.344,0.000
1621214496.598,-41.992,-39.062,-14.648,-23.926,0.000
1621214496.601,-40.039,-44.922,-9.277,-27.832,0.000
1621214496.605,-41.992,-43.457,-5.859,-30.273,0.000
1621214496.610,-29.785,-43.457,-7.812,-25.391,0.000
1621214496.613,-22.949,-43.457,-9.277,-33.691,0.000
1621214496.617,-30.273,-43.945,-2.930,-54.199,0.000
1621214496.621,-37.598,-39.551,0.000,-57.617,0.000
1621214496.625,-35.645,-36.133,-4.883,-51.758,0.000
1621214496.629,-23.438,-41.016,-3.906,-40.527,0.000
1621214496.633,-26.855,-38.574,-1.465,-29.297,0.000
1621214496.637,-40.039,-35.645,-8.301,-31.738,0.000
1621214496.641,-28.320,-35.645,-8.301,-35.645,0.000
1621214496.644,-19.043,-35.156,-3.418,-62.500,0.000
1621214496.648,-31.250,-29.297,-1.953,-76.660,0.000
1621214496.652,-51.758,-33.691,-4.883,-57.129,0.000
1621214496.656,-39.062,-48.340,-7.324,-40.527,0.000
1621214496.660,-24.902,-49.805,0.000,-29.297,0.000
1621214496.664,-30.762,-39.551,-1.953,-24.414,0.000
1621214496.668,-32.227,-33.691,-7.324,-31.738,0.000
1621214496.672,-30.273,-34.668,-9.277,-29.297,0.000
1621214496.676,-25.879,-32.715,-12.207,-20.508,0.000
1621214496.680,-31.250,-33.691,-15.625,-35.645,0.000
1621214496.684,-24.414,-30.762,-10.254,-41.504,0.000
1621214496.687,-23.926,-33.691,-5.859,-27.832,0.000
1621214496.691,-17.578,-37.109,-13.672,-23.438,0.000
1621214496.695,-0.977,-27.832,-13.184,-16.113,0.000
1621214496.699,0.488,-26.855,-10.742,-5.859,0.000
1621214496.703,-20.508,-37.109,-15.137,-17.578,0.000
1621214496.707,-49.805,-38.574,-15.137,-30.762,0.000
1621214496.711,-30.762,-30.273,-16.602,-25.879,0.000
1621214496.715,-15.137,-32.715,-21.973,-32.715,0.000
1621214496.719,-17.090,-39.062,-16.602,-34.180,0.000
1621214496.723,-19.043,-40.527,-12.207,-31.250,0.000
1621214496.727,-21.973,-37.109,-16.602,-30.762,0.000
1621214496.731,-26.367,-35.156,-17.090,-34.668,0.000
1621214496.734,-43.457,-38.574,-14.648,-41.504,0.000
1621214496.738,-48.340,-39.551,-18.555,-42.969,0.000
1621214496.742,-36.133,-40.039,-9.277,-28.809,0.000
1621214496.746,-24.902,-39.551,-1.465,-23.926,0.000
1621214496.750,-29.297,-37.109,-1.953,-32.227,0.000
1621214496.754,-27.832,-37.598,-3.906,-34.180,0.000
1621214496.758,-30.762,-40.527,-5.371,-20.020,0.000
1621214496.762,-17.578,-42.969,-3.906,-16.602,0.000
1621214496.766,-4.395,-41.016,-2.930,-18.066,0.000
1621214496.770,-19.531,-39.551,-6.836,-12.207,0.000
1621214496.774,-2.441,-39.062,-10.254,-10.254,0.000
1621214496.777,-6.836,-36.621,-3.906,-22.949,0.000
1621214496.781,-32.715,-44.922,-1.953,-32.715,0.000
1621214496.785,-20.996,-43.945,-0.977,-38.086,0.000
1621214496.789,-21.484,-38.574,-1.953,-35.645,0.000
1621214496.793,-35.156,-48.340,-0.977,-16.113,0.000
1621214496.797,-30.762,-55.176,-5.371,-18.555,0.000
1621214496.801,-23.926,-51.270,-12.695,-34.180,0.000
1621214496.805,-22.949,-45.898,-13.184,-34.668,0.000
1621214496.809,-28.320,-48.340,-11.230,-41.992,0.000
1621214496.813,-22.949,-44.922,-11.230,-45.410,0.000
1621214496.817,-24.902,-41.016,-17.090,-47.363,0.000
1621214496.820,-41.504,-44.922,-21.484,-57.617,0.000
1621214496.824,-43.457,-43.945,-23.438,-60.547,0.000
1621214496.828,-42.969,-42.480,-20.020,-62.012,0.000
1621214496.832,-34.180,-43.945,-15.625,-61.523,0.000
1621214496.836,-40.039,-49.316,-19.531,-55.664,0.000
1621214496.840,-45.898,-48.340,-20.996,-57.129,0.000
1621214496.844,-41.992,-45.898,-18.555,-57.617,0.000
1621214496.848,-44.922,-57.617,-11.230,-49.316,0.000
1621214496.852,-38.086,-55.664,-5.859,-41.504,0.000
1621214496.856,-28.809,-39.551,-11.230,-32.715,0.000
1621214496.860,-25.879,-30.762,-16.113,-21.973,0.000
1621214496.863,-17.090,-34.180,-18.555,-17.090,0.000
1621214496.867,-10.742,-38.086,-16.113,-9.766,0.000
1621214496.871,-20.996,-30.762,-14.160,-12.207,0.000
1621214496.875,-21.973,-30.762,-13.672,-16.602,0.000
1621214496.879,-15.625,-37.598,-13.672,-8.789,0.000
1621214496.883,-23.438,-45.898,-15.625,-15.625,0.000
1621214496.887,-33.691,-45.898,-14.160,-27.344,0.000
1621214496.891,-28.809,-33.203,-9.277,-7.812,0.000
1621214496.895,-19.043,-28.320,-3.418,-1.465,0.000
1621214496.899,-34.668,-28.320,-7.324,-25.391,0.000
1621214496.902,-34.668,-28.320,-10.742,-32.227,0.000
1621214496.906,-23.438,-32.227,-10.254,-33.691,0.000
1621214496.910,-22.949,-32.715,-8.789,-35.156,0.000
1621214496.914,-6.348,-31.250,-6.348,-24.414,0.000
1621214496.918,-20.508,-31.250,-8.789,-21.973,0.000
1621214496.922,-29.785,-30.762,-8.789,-26.367,0.000
1621214496.926,-21.973,-30.762,-6.348,-31.250,0.000
1621214496.930,-23.438,-35.645,-11.230,-45.410,0.000
1621214496.933,-31.738,-40.039,-11.719,-51.270,0.000
1621214496.938,-24.414,-35.645,-2.441,-45.410,0.000
1621214496.942,-20.996,-32.227,-0.488,-36.133,0.000
1621214496.946,-33.203,-33.691,-1.953,-35.156,0.000
1621214496.949,-40.039,-35.645,0.000,-40.039,0.000
1621214496.953,-52.246,-36.133,-1.953,-39.551,0.000
1621214496.957,-55.176,-36.621,-3.418,-33.203,0.000
1621214496.961,-44.434,-39.062,0.000,-30.762,0.000
1621214496.965,-39.062,-41.016,-1.953,-27.832,0.000
1621214496.969,-29.297,-38.574,-2.930,-21.484,0.000
1621214496.973,-13.672,-35.156,-3.418,-10.742,0.000
1621214496.977,-14.160,-40.039,-3.418,-1.953,0.000
1621214496.980,-13.672,-39.062,-4.395,-7.324,0.000
1621214496.985,-17.090,-37.598,-10.254,-15.625,0.000
1621214496.989,-21.973,-41.016,-17.090,-13.672,0.000
1621214496.992,-21.973,-40.039,-15.625,-13.184,0.000
1621214496.996,-11.719,-44.922,-12.207,-17.090,0.000
1621214497.000,-10.254,-47.363,-13.672,-13.672,0.000
1621214497.004,-28.809,-45.410,-18.555,-20.508,0.000
1621214497.008,-19.043,-46.387,-15.137,-28.320,0.000
1621214497.012,-21.973,-42.480,-20.020,-22.461,0.000
1621214497.016,-22.461,-38.574,-19.531,-22.461,0.000
1621214497.020,-14.160,-38.574,-16.113,-33.691,0.000
1621214497.023,-30.273,-39.551,-21.973,-41.992,0.000
1621214497.027,-34.180,-43.457,-20.996,-46.875,0.000
1621214497.032,-44.434,-47.852,-15.137,-47.363,0.000
1621214497.035,-62.500,-44.434,-16.602,-57.617,0.000
1621214497.039,-50.781,-37.598,-17.090,-64.453,0.000
1621214497.043,-44.922,-37.598,-16.602,-52.734,0.000
1621214497.047,-40.039,-42.480,-16.113,-44.922,0.000
1621214497.051,-37.109,-44.434,-10.742,-41.504,0.000
1621214497.055,-39.551,-38.086,-9.277,-36.133,0.000
1621214497.059,-38.086,-39.062,-8.301,-33.691,0.000
1621214497.063,-25.879,-40.039,-9.277,-22.949,0.000
1621214497.066,-21.484,-41.992,-14.160,-28.809,0.000
1621214497.070,-38.086,-43.457,-16.602,-38.086,0.000
1621214497.074,-29.785,-44.922,-12.695,-24.902,0.000
1621214497.078,-31.250,-45.898,-6.836,-19.043,0.000
1621214497.082,-40.527,-43.457,-11.719,-24.902,0.000
1621214497.086,-31.250,-44.922,-17.578,-25.879,0.000
1621214497.090,-22.949,-41.016,-12.207,-16.113,0.000
1621214497.094,-20.020,-38.574,-9.766,-16.113,0.000
1621214497.098,-23.926,-39.551,-9.766,-22.949,0.000
1621214497.102,-27.344,-38.574,-9.277,-29.785,0.000
1621214497.106,-40.039,-40.527,-8.789,-25.879,0.000
1621214497.109,-21.484,-47.363,-9.766,-19.043,0.000
1621214497.113,-15.137,-46.875,-6.836,-25.391,0.000
1621214497.117,-23.438,-39.551,-6.348,-30.762,0.000
1621214497.121,-31.250,-43.945,-5.371,-35.645,0.000
1621214497.125,-42.480,-48.828,-4.883,-32.715,0.000
1621214497.129,-35.645,-46.387,-6.836,-33.691,0.000
1621214497.133,-30.762,-42.480,-5.859,-50.293,0.000
1621214497.137,-28.809,-43.945,-7.324,-59.082,0.000
1621214497.141,-40.039,-46.387,-4.883,-51.270,0.000
1621214497.145,-39.062,-46.875,-1.953,-38.574,0.000
1621214497.149,-36.621,-47.852,-2.441,-32.227,0.000
1621214497.152,-41.992,-52.734,-9.766,-41.992,0.000
1621214497.156,-38.086,-48.340,-12.207,-53.711,0.000
1621214497.160,-34.668,-41.504,-4.883,-43.457,0.000
1621214497.164,-21.973,-49.316,-2.441,-37.598,0.000
1621214497.168,-16.113,-54.688,-5.859,-47.852,0.000
1621214497.172,-25.391,-41.992,-6.348,-39.062,0.000
1621214497.176,-30.273,-28.320,-4.883,-24.414,0.000
1621214497.180,-34.668,-30.273,-7.812,-20.020,0.000
1621214497.184,-19.043,-42.969,-8.789,-25.879,0.000
1621214497.188,-25.391,-48.340,-7.812,-30.762,0.000
1621214497.192,-36.133,-37.109,-5.859,-23.926,0.000
1621214497.195,-6.836,-28.320,-4.395,-8.789,0.000
1621214497.199,-1.953,-28.320,-2.930,-7.812,0.000
1621214497.203,-10.742,-30.762,-6.836,-21.973,0.000
1621214497.207,-3.418,-34.668,-9.766,-19.043,0.000
1621214497.211,3.906,-31.738,-3.906,-4.395,0.000
1621214497.215,-18.066,-38.086,-4.395,-7.812,0.000
1621214497.219,-46.387,-45.898,-6.348,-17.578,0.000
1621214497.223,-41.504,-37.598,-8.301,-19.043,0.000
1621214497.227,-23.438,-34.668,-10.742,-24.414,0.000
1621214497.231,-25.391,-39.062,-6.348,-29.785,0.000
1621214497.235,-31.250,-40.527,0.977,-25.391,0.000
1621214497.238,-40.039,-44.434,-3.906,-32.227,0.000
1621214497.242,-30.273,-44.434,-12.207,-28.320,0.000
1621214497.246,-28.320,-39.062,-12.695,-28.809,0.000
1621214497.250,-51.758,-41.992,-9.766,-54.688,0.000
1621214497.254,-52.246,-45.898,-5.859,-54.199,0.000
1621214497.258,-60.059,-49.316,-5.371,-44.434,0.000
1621214497.262,-71.289,-48.828,-7.324,-45.410,0.000
1621214497.266,-58.594,-46.875,-8.301,-57.129,0.000
1621214497.270,-45.410,-45.410,-9.766,-59.570,0.000
1621214497.274,-47.363,-42.480,-9.277,-41.992,0.000
1621214497.278,-50.781,-41.992,-6.348,-25.879,0.000
1621214497.281,-30.273,-41.016,-5.859,-23.438,0.000
1621214497.285,-19.043,-41.504,-11.230,-29.785,0.000
1621214497.289,-20.996,-47.363,-16.602,-35.156,0.000
1621214497.293,-13.184,-45.410,-13.184,-30.273,0.000
1621214497.297,-14.160,-40.039,-12.695,-27.832,0.000
1621214497.301,-17.090,-39.062,-19.043,-21.973,0.000
1621214497.305,-22.949,-40.527,-17.090,-13.672,0.000
1621214497.309,-17.090,-32.715,-12.207,-13.672,0.000
1621214497.313,-7.324,-31.250,-12.207,-11.719,0.000
1621214497.317,-21.484,-41.016,-12.207,-20.020,0.000
1621214497.321,-25.391,-39.062,-12.207,-14.160,0.000
1621214497.325,-17.090,-34.668,-10.742,-14.160,0.000
1621214497.328,-13.184,-39.062,-13.672,-20.996,0.000
1621214497.332,-11.719,-39.062,-16.602,-6.348,0.000
1621214497.336,-21.973,-41.016,-17.578,-12.207,0.000
1621214497.340,-29.297,-40.527,-13.672,-30.762,0.000
1621214497.344,-35.645,-35.645,-7.812,-25.391,0.000
1621214497.348,-24.414,-38.574,-7.324,-29.785,0.000
1621214497.352,-18.555,-42.969,-7.812,-54.199,0.000
1621214497.355,-23.438,-43.457,-8.301,-69.824,0.000
1621214497.360,-28.809,-43.945,-3.906,-69.824,0.000
1621214497.364,-34.668,-43.457,-1.465,-49.316,0.000
1621214497.368,-26.855,-37.109,-3.906,-42.969,0.000
1621214497.371,-40.527,-39.551,-6.836,-46.387,0.000
1621214497.375,-42.969,-47.363,-5.371,-29.297,0.000
1621214497.379,-22.949,-50.293,-3.418,-17.578,0.000
1621214497.383,-26.367,-56.152,-9.277,-29.297,0.000
1621214497.387,-26.367,-55.176,-13.672,-36.133,0.000
1621214497.391,-9.766,-46.387,-14.160,-22.461,0.000
1621214497.395,-20.996,-43.945,-6.836,-17.090,0.000
1621214497.399,-39.551,-44.922,-6.836,-24.902,0.000
1621214497.402,-31.738,-43.457,-7.812,-23.926,0.000
1621214497.407,-13.672,-38.086,-3.418,-19.043,0.000
1621214497.411,-4.395,-38.574,-5.859,-23.438,0.000
1621214497.414,-19.531,-41.016,-7.324,-22.949,0.000
1621214497.418,-37.598,-39.062,-3.906,-13.184,0.000
1621214497.422,-15.625,-36.621,-3.906,-10.254,0.000
1621214497.426,3.418,-33.691,-5.859,-3.906,0.000
1621214497.430,-4.883,-34.180,-7.812,8.789,0.000
1621214497.434,-4.395,-29.297,-7.324,-3.906,0.000
1621214497.438,-2.441,-25.879,-8.301,-17.090,0.000
1621214497.442,-13.184,-35.645,-14.160,-13.672,0.000
1621214497.445,-22.949,-41.016,-14.648,-13.184,0.000
1621214497.449,-16.602,-35.645,-10.254,-2.441,0.000
1621214497.454,-13.184,-30.273,-7.812,-13.672,0.000
1621214497.457,-20.508,-28.320,-7.812,-25.391,0.000
1621214497.461,-23.926,-28.809,-10.254,-32.715,0.000
1621214497.465,-15.137,-32.227,-13.672,-37.598,0.000
1621214497.469,-18.066,-33.691,-12.207,-38.574,0.000
1621214497.473,-26.855,-41.992,-7.324,-30.762,0.000
1621214497.477,-34.668,-50.293,-4.395,-29.297,0.000
1621214497.481,-33.691,-45.410,-5.859,-32.227,0.000
1621214497.485,-19.043,-37.598,0.000,-26.367,0.000
1621214497.488,-22.461,-34.180,7.812,-31.738,0.000
1621214497.492,-48.828,-38.086,2.930,-34.180,0.000
1621214497.496,-44.434,-41.992,-2.930,-25.391,0.000
1621214497.500,-18.555,-41.016,-4.395,-26.855,0.000
1621214497.504,-14.648,-41.016,-3.906,-27.344,0.000
1621214497.508,-10.254,-35.645,-4.883,-13.672,0.000
1621214497.512,-16.113,-32.227,-7.324,-2.441,0.000
1621214497.516,-18.555,-35.645,-7.324,-13.184,0.000
1621214497.520,-10.254,-35.645,-12.695,-20.020,0.000
1621214497.524,-11.719,-38.574,-17.578,-8.789,0.000
1621214497.528,-18.555,-46.875,-15.137,-1.465,0.000
1621214497.531,-20.508,-49.316,-9.277,2.441,0.000
1621214497.535,-24.414,-46.875,-3.906,-7.812,0.000
1621214497.539,-19.043,-40.527,-4.395,-25.391,0.000
1621214497.543,-10.742,-36.133,-5.371,-24.414,0.000
1621214497.547,-15.137,-37.109,-5.371,-21.484,0.000
1621214497.551,-13.184,-35.645,-5.859,-22.461,0.000
1621214497.555,-6.836,-35.645,-9.277,-26.855,0.000
1621214497.559,-7.812,-36.133,-11.230,-34.668,0.000
1621214497.563,-15.625,-42.969,-10.742,-35.156,0.000
1621214497.567,-33.203,-55.176,-16.602,-44.434,0.000
1621214497.571,-38.086,-52.734,-14.648,-52.246,0.000
1621214497.574,-29.297,-45.410,-5.371,-40.039,0.000
1621214497.578,-28.320,-46.387,-3.906,-40.039,0.000
1621214497.582,-47.363,-46.875,-6.836,-48.340,0.000
1621214497.586,-37.109,-42.969,-7.812,-44.434,0.000
1621214497.590,-25.879,-41.016,-5.859,-33.203,0.000
1621214497.594,-39.062,-32.715,-5.371,-27.344,0.000
1621214497.598,-29.785,-36.621,-13.184,-44.434,0.000
1621214497.602,-22.949,-47.363,-13.672,-40.527,0.000
1621214497.606,-19.531,-39.062,-10.742,-30.762,0.000
1621214497.610,-27.344,-28.809,-14.648,-38.574,0.000
1621214497.614,-32.715,-30.762,-15.625,-27.832,0.000
1621214497.617,-17.578,-38.086,-14.648,-24.902,0.000
1621214497.621,-19.043,-40.039,-14.160,-29.297,0.000
1621214497.625,-25.879,-36.133,-14.648,-27.344,0.000
1621214497.629,-15.625,-37.598,-17.090,-19.043,0.000
1621214497.633,-5.859,-45.410,-20.508,-7.324,0.000
1621214497.637,-3.906,-49.316,-16.602,-22.949,0.000
1621214497.641,-22.949,-43.457,-14.648,-34.180,0.000
1621214497.645,-33.203,-41.016,-18.066,-21.973,0.000
1621214497.649,-21.973,-45.410,-14.648,-15.137,0.000
1621214497.653,-19.531,-45.410,-19.531,-35.645,0.000
1621214497.657,-31.250,-41.992,-26.367,-47.852,0.000
1621214497.660,-23.926,-39.551,-20.020,-20.996,0.000
1621214497.664,-29.785,-40.527,-15.625,-12.207,0.000
1621214497.668,-37.109,-40.039,-14.648,-29.297,0.000
1621214497.672,-29.785,-38.086,-12.207,-37.109,0.000
1621214497.676,-34.668,-43.945,-13.672,-38.574,0.000
1621214497.680,-29.785,-46.387,-12.695,-34.668,0.000
1621214497.684,-50.293,-40.527,-15.137,-39.062,0.000
1621214497.688,-49.805,-39.062,-16.113,-41.992,0.000
1621214497.692,-20.996,-48.340,-10.254,-30.273,0.000
1621214497.696,-38.086,-61.035,-10.254,-26.855,0.000
1621214497.699,-40.039,-60.547,-15.625,-42.969,0.000
1621214497.703,-26.367,-53.223,-15.137,-37.598,0.000
1621214497.707,-30.762,-41.504,-11.719,-19.531,0.000
1621214497.711,-37.109,-38.574,-11.230,-18.066,0.000
1621214497.715,-36.133,-46.387,-12.695,-23.438,0.000
1621214497.719,-36.133,-49.805,-15.137,-20.996,0.000
1621214497.723,-24.902,-39.062,-8.789,-5.859,0.000
1621214497.727,-2.930,-36.133,-5.371,1.953,0.000
1621214497.730,-2.441,-36.133,-17.090,-6.348,0.000
1621214497.735,1.465,-36.621,-16.113,-14.160,0.000
1621214497.739,-6.348,-41.016,-13.184,-16.113,0.000
1621214497.743,-12.207,-47.852,-13.184,-16.602,0.000
1621214497.746,-12.695,-48.828,-6.836,-4.395,0.000
1621214497.750,-17.578,-39.062,-4.883,-6.836,0.000
1621214497.754,3.418,-39.062,-8.301,-20.996,0.000
1621214497.758,-0.488,-42.480,-11.230,-23.926,0.000
1621214497.762,-11.719,-43.457,-8.789,-21.973,0.000
1621214497.766,-20.508,-43.945,-7.812,-24.414,0.000
1621214497.770,-35.645,-39.551,-9.766,-29.785,0.000
1621214497.774,-41.992,-35.645,-9.277,-31.738,0.000
1621214497.777,-23.926,-32.227,-6.348,-25.391,0.000
1621214497.782,-18.555,-30.762,-2.930,-20.996,0.000
1621214497.786,-26.367,-26.367,-4.883,-32.227,0.000
1621214497.789,-33.691,-27.344,-8.789,-35.156,0.000
1621214497.793,-34.180,-34.180,-10.742,-27.344,0.000
1621214497.797,-41.016,-33.691,-12.207,-30.762,0.000
1621214497.801,-36.133,-35.156,-12.207,-31.250,0.000
1621214497.805,-28.320,-36.621,-13.672,-37.109,0.000
1621214497.809,-19.531,-34.180,-18.066,-44.434,0.000
1621214497.813,-4.395,-32.227,-13.672,-24.414,0.000
1621214497.817,-13.672,-34.180,-9.277,-15.625,0.000
1621214497.820,-33.691,-38.086,-16.602,-32.715,0.000
1621214497.824,-27.344,-34.180,-17.090,-30.762,0.000
1621214497.829,-4.395,-29.785,-7.812,-17.578,0.000
1621214497.832,-11.719,-31.738,-5.859,-26.855,0.000
1621214497.836,-31.738,-35.645,-9.277,-29.297,0.000
1621214497.840,-6.836,-38.086,-8.301,-17.090,0.000
1621214497.844,-7.812,-34.668,-7.812,-17.090,0.000
1621214497.848,-18.555,-32.715,-4.395,-19.531,0.000
1621214497.852,-10.254,-40.527,-4.395,-22.461,0.000
1621214497.856,-7.812,-43.457,-11.230,-21.484,0.000
1621214497.860,-13.184,-40.527,-11.230,-10.742,0.000
1621214497.863,-20.020,-33.691,-9.766,-10.254,0.000
1621214497.867,-33.691,-32.227,-9.277,-17.090,0.000
1621214497.871,-48.340,-36.133,-5.859,-21.484,0.000
1621214497.875,-13.184,-40.039,-3.906,-21.484,0.000
1621214497.879,-10.742,-43.457,-8.301,-34.668,0.000
1621214497.883,-32.227,-43.945,-12.207,-38.574,0.000
1621214497.887,-25.391,-49.316,-6.348,-23.926,0.000
1621214497.891,-11.719,-48.828,-1.465,-7.812,0.000
1621214497.895,-5.859,-43.945,-3.906,12.695,0.000
1621214497.899,-4.883,-38.086,-3.418,17.578,0.000
1621214497.903,-8.789,-40.527,-3.906,14.160,0.000
1621214497.906,-6.836,-44.922,-8.789,4.883,0.000
1621214497.910,-3.906,-35.645,-7.324,6.348,0.000
1621214497.914,-10.254,-28.809,-5.371,23.438,0.000
1621214497.918,-21.484,-31.738,-7.324,3.418,0.000
1621214497.922,-6.836,-31.738,-8.301,-26.855,0.000
1621214497.926,3.418,-29.785,-9.766,-21.973,0.000
1621214497.930,-10.742,-35.156,-5.371,-15.625,0.000
1621214497.934,-15.625,-43.945,0.000,-22.949,0.000
1621214497.938,-8.789,-41.016,-3.418,-23.438,0.000
1621214497.942,-3.418,-33.691,-4.395,-18.066,0.000
1621214497.946,6.836,-32.715,0.977,-1.465,0.000
1621214497.949,11.230,-36.621,-4.883,-0.977,0.000
1621214497.953,-3.418,-35.156,-9.766,-27.344,0.000
1621214497.957,-6.348,-33.203,-1.465,-35.156,0.000
1621214497.961,-5.371,-37.109,0.977,-26.367,0.000
1621214497.965,-18.555,-43.457,3.418,-18.555,0.000
1621214497.969,-19.531,-40.039,4.395,-24.414,0.000
1621214497.973,-21.973,-35.645,-2.930,-39.551,0.000
1621214497.977,-18.066,-40.039,-6.836,-27.832,0.000
1621214497.981,-16.602,-36.621,0.000,-18.066,0.000
1621214497.985,-22.461,-41.016,6.836,-25.879,0.000
1621214497.989,-28.320,-42.480,2.930,-21.484,0.000
1621214497.992,-20.996,-41.016,1.465,-6.836,0.000
1621214497.996,-21.973,-44.922,3.418,-4.395,0.000
1621214498.000,-20.020,-37.598,0.000,-15.137,0.000
1621214498.004,-15.137,-29.297,-1.465,-18.555,0.000
1621214498.008,-27.832,-36.133,2.441,-11.719,0.000
1621214498.012,-12.207,-38.086,5.859,3.418,0.000
1621214498.016,-3.906,-32.715,3.418,8.789,0.000
1621214498.020,-18.555,-36.621,0.977,-0.488,0.000
1621214498.024,-27.344,-40.039,-5.371,-9.766,0.000
1621214498.028,-13.672,-40.527,-7.324,-8.789,0.000
1621214498.031,-15.137,-42.969,-2.930,-11.230,0.000
1621214498.035,-16.602,-44.922,-1.465,-9.277,0.000
1621214498.039,-1.465,-44.434,1.953,0.977,0.000
1621214498.043,-3.906,-41.016,2.930,-4.395,0.000
1621214498.047,-13.672,-46.875,-4.883,-3.418,0.000
1621214498.051,-15.625,-50.293,-4.395,-7.812,0.000
1621214498.055,-13.184,-42.480,-1.953,-23.926,0.000
1621214498.059,-17.090,-43.457,-6.348,-31.250,0.000
1621214498.063,-24.414,-46.387,-7.324,-38.086,0.000
1621214498.067,-16.113,-46.875,-5.371,-44.434,0.000
1621214498.071,-23.438,-46.875,-2.930,-43.945,0.000
1621214498.074,-30.273,-39.551,-2.441,-42.969,0.000
1621214498.078,-19.043,-37.598,8.301,-33.203,0.000
1621214498.082,-25.879,-41.504,10.254,-28.320,0.000
1621214498.086,-30.273,-43.457,2.441,-35.645,0.000
1621214498.090,-33.691,-49.316,6.348,-36.621,0.000
1621214498.094,-37.598,-44.922,8.301,-24.414,0.000
1621214498.098,-23.926,-42.480,8.789,-8.789,0.000
1621214498.102,-23.438,-43.457,6.348,-13.672,0.000
1621214498.105,-17.578,-35.156,0.977,-25.391,0.000
1621214498.110,-17.090,-33.691,1.465,-15.625,0.000
1621214498.114,-15.137,-37.109,4.395,-2.930,0.000
1621214498.117,-17.090,-34.668,8.789,-8.789,0.000
1621214498.121,-24.902,-34.668,7.324,-19.043,0.000
1621214498.125,-20.508,-42.969,5.859,-13.672,0.000
1621214498.129,-13.184,-44.922,5.371,-10.254,0.000
1621214498.133,-14.648,-46.387,-2.441,-24.902,0.000
1621214498.137,-10.254,-46.875,-0.977,-24.414,0.000
1621214498.141,-7.324,-42.969,1.465,-17.090,0.000
1621214498.145,-18.066,-41.504,-2.441,-18.066,0.000
1621214498.148,-26.855,-41.992,0.977,-25.391,0.000
1621214498.152,-20.996,-45.898,0.488,-26.367,0.000
1621214498.157,-7.812,-45.898,0.977,-23.926,0.000
1621214498.161,-17.090,-47.363,4.883,-22.949,0.000
1621214498.164,-23.438,-42.480,-0.977,-25.879,0.000
1621214498.168,-19.043,-35.156,-2.441,-31.250,0.000
1621214498.172,-24.902,-35.645,-0.977,-39.062,0.000
1621214498.176,-21.484,-43.945,1.953,-34.668,0.000
1621214498.180,-16.602,-48.828,3.906,-25.879,0.000
1621214498.184,-24.414,-49.805,-1.953,-36.133,0.000
1621214498.188,-33.203,-54.199,-3.418,-38.086,0.000
1621214498.192,-33.691,-50.293,-3.906,-24.902,0.000
1621214498.195,-34.668,-42.480,-6.836,-20.996,0.000
1621214498.199,-38.574,-42.480,-11.230,-24.902,0.000
1621214498.204,-29.785,-41.504,-9.277,-22.949,0.000
1621214498.207,-28.809,-39.062,-12.207,-19.531,0.000
1621214498.211,-30.762,-42.969,-12.695,-22.461,0.000
1621214498.215,-28.809,-45.410,-11.719,-23.926,0.000
1621214498.219,-23.926,-42.480,-12.695,-27.344,0.000
1621214498.223,-16.602,-43.457,-8.301,-23.438,0.000
1621214498.227,-14.160,-44.434,-9.766,-18.555,0.000
1621214498.231,-12.207,-41.504,-7.812,-15.625,0.000
1621214498.235,-14.648,-36.621,-3.906,-15.137,0.000
1621214498.238,-17.578,-32.715,-5.859,-19.043,0.000
1621214498.242,-10.742,-37.109,-3.418,-18.555,0.000
1621214498.246,-9.277,-37.598,-3.418,-21.973,0.000
1621214498.250,-10.742,-32.715,-0.488,-24.414,0.000
1621214498.254,-13.184,-34.180,0.000,-27.832,0.000
1621214498.258,-21.484,-42.969,-3.906,-24.414,0.000
1621214498.262,-14.160,-45.898,-5.859,-21.973,0.000
1621214498.266,-29.297,-43.457,-3.906,-26.855,0.000
1621214498.270,-28.320,-44.434,0.488,-27.832,0.000
1621214498.274,-7.812,-42.969,-1.953,-30.762,0.000
1621214498.278,-13.184,-41.016,-3.418,-23.926,0.000
1621214498.281,-28.320,-46.387,-2.930,-22.949,0.000
1621214498.285,-43.457,-45.898,-1.465,-41.504,0.000
1621214498.289,-35.156,-36.621,0.488,-42.969,0.000
1621214498.293,-38.574,-40.527,-0.977,-38.574,0.000
1621214498.297,-59.570,-44.922,-1.465,-41.016,0.000
1621214498.301,-54.688,-43.457,-4.883,-49.316,0.000
1621214498.305,-42.480,-44.922,-6.348,-47.852,0.000
1621214498.309,-48.340,-46.387,-5.371,-37.109,0.000
1621214498.313,-40.527,-38.086,-1.465,-25.879,0.000
1621214498.317,-40.527,-31.738,-0.488,-21.484,0.000
1621214498.321,-32.715,-38.574,-0.977,-20.508,0.000
1621214498.324,-32.227,-39.062,-4.395,-22.461,0.000
1621214498.328,-34.668,-34.668,-7.812,-30.273,0.000
1621214498.332,-19.531,-33.691,-6.836,-36.621,0.000
1621214498.336,-21.484,-36.133,-3.418,-32.715,0.000
1621214498.340,-15.137,-32.227,-0.977,-20.020,0.000
1621214498.344,-18.066,-31.738,-3.418,-19.531,0.000
1621214498.348,-25.391,-32.227,0.000,-24.902,0.000
1621214498.352,-23.926,-31.250,-1.465,-33.691,0.000
1621214498.356,-22.461,-37.109,-7.812,-41.504,0.000
1621214498.360,-17.090,-41.016,-6.836,-35.645,0.000
1621214498.364,-29.785,-38.086,-10.254,-37.109,0.000
1621214498.367,-31.738,-32.715,-13.184,-40.527,0.000
1621214498.371,-17.578,-30.273,-13.184,-45.410,0.000
1621214498.375,-33.691,-28.809,-16.113,-47.852,0.000
1621214498.379,-27.832,-30.273,-10.254,-38.086,0.000
1621214498.383,-21.973,-31.738,-3.906,-39.062,0.000
1621214498.387,-24.902,-36.621,-4.883,-42.969,0.000
1621214498.391,-22.461,-38.574,-2.441,-35.156,0.000
1621214498.395,-24.414,-36.621,-0.977,-25.879,0.000
1621214498.399,-37.598,-39.551,0.000,-28.809,0.000
1621214498.403,-36.133,-41.504,-2.441,-37.109,0.000
1621214498.407,-30.762,-39.551,-3.418,-45.410,0.000
1621214498.410,-35.645,-40.039,2.930,-39.551,0.000
1621214498.414,-32.227,-39.062,4.883,-24.902,0.000
1621214498.418,-28.809,-34.668,7.324,-21.973,0.000
1621214498.422,-16.602,-33.691,11.230,-11.230,0.000
1621214498.426,-11.719,-39.062,9.277,-10.742,0.000
1621214498.430,-16.113,-45.410,4.395,-26.367,0.000
1621214498.434,-19.531,-45.898,3.418,-32.715,0.000
1621214498.438,-22.461,-49.805,3.418,-37.598,0.000
1621214498.442,-19.043,-51.758,-0.488,-42.480,0.000
1621214498.446,-17.578,-41.504,-1.465,-39.551,0.000
1621214498.450,-25.879,-37.598,-1.953,-33.203,0.000
1621214498.453,-21.973,-43.945,-6.836,-38.574,0.000
1621214498.457,-20.508,-43.457,-7.324,-40.527,0.000
1621214498.461,-15.137,-38.086,-3.906,-29.297,0.000
1621214498.465,-15.137,-36.621,-2.441,-34.668,0.000
1621214498.469,-26.855,-33.203,0.000,-46.387,0.000
1621214498.473,-22.949,-39.551,1.953,-42.969,0.000
1621214498.477,-26.855,-38.574,-0.977,-33.691,0.000
1621214498.481,-32.227,-33.203,0.488,-31.250,0.000
1621214498.485,-14.648,-37.598,3.418,-31.738,0.000
1621214498.489,-16.602,-44.434,0.000,-31.250,0.000
1621214498.493,-17.090,-50.781,0.488,-30.762,0.000
1621214498.496,-9.277,-42.480,1.953,-21.973,0.000
1621214498.500,-19.531,-33.691,0.000,-8.789,0.000
1621214498.504,-14.648,-37.598,-3.418,-9.766,0.000
1621214498.508,-10.254,-41.504,-7.812,-4.883,0.000
1621214498.512,-24.902,-43.457,-9.277,0.488,0.000
1621214498.516,-33.691,-44.434,-8.301,-2.441,0.000
1621214498.520,-33.203,-41.504,-4.395,-3.418,0.000
1621214498.524,-26.367,-39.551,-9.277,-10.254,0.000
1621214498.527,-19.043,-34.180,-11.719,-1.953,0.000
1621214498.532,-20.508,-36.621,-8.301,4.395,0.000
1621214498.536,-20.020,-39.062,-7.812,-2.930,0.000
1621214498.539,-13.184,-33.203,-1.953,-13.184,0.000
1621214498.543,-13.672,-36.133,2.441,-11.719,0.000
1621214498.547,-22.461,-38.086,0.000,-2.930,0.000
1621214498.551,-23.926,-36.133,-5.371,-10.254,0.000
1621214498.555,-28.809,-37.598,-11.719,-35.156,0.000
1621214498.559,-35.156,-36.133,-14.648,-43.457,0.000
1621214498.563,-21.484,-32.715,-14.648,-30.273,0.000
1621214498.567,-25.879,-30.762,-9.766,-33.203,0.000
1621214498.570,-32.227,-35.156,-5.859,-45.898,0.000
1621214498.574,-26.367,-39.062,-7.324,-44.922,0.000
1621214498.579,-26.367,-40.039,-4.883,-38.574,0.000
1621214498.582,-28.320,-35.156,-3.418,-41.504,0.000
1621214498.586,-28.320,-37.109,-5.371,-41.504,0.000
1621214498.590,-30.273,-42.480,-4.883,-38.574,0.000
1621214498.594,-36.133,-29.297,-5.859,-24.902,0.000
1621214498.598,-33.203,-29.785,-11.719,-23.926,0.000
1621214498.602,-31.738,-38.574,-12.695,-36.621,0.000
1621214498.606,-26.367,-36.621,-11.719,-36.133,0.000
1621214498.610,-19.531,-41.504,-10.254,-32.227,0.000
1621214498.613,-34.668,-40.527,-10.254,-25.879,0.000
1621214498.617,-52.246,-33.203,-12.695,-18.555,0.000
1621214498.621,-31.250,-38.086,-8.789,-10.742,0.000
1621214498.625,-15.137,-41.504,-5.371,-2.441,0.000
1621214498.629,-29.297,-36.621,-8.789,-4.883,0.000
1621214498.633,-23.926,-42.480,-8.301,-1.465,0.000
1621214498.637,-10.742,-40.527,-3.906,-6.836,0.000
1621214498.641,-15.625,-35.645,-6.836,-20.020,0.000
1621214498.645,-23.438,-50.293,-8.789,-27.832,0.000
1621214498.649,-23.926,-48.340,-7.812,-26.367,0.000
1621214498.653,-20.020,-34.668,-1.953,-22.949,0.000
1621214498.656,-12.207,-33.691,-2.930,-33.691,0.000
1621214498.660,-22.461,-35.156,-12.695,-45.898,0.000
1621214498.664,-35.645,-40.039,-10.742,-39.551,0.000
1621214498.668,-18.555,-39.551,-10.742,-35.645,0.000
1621214498.672,-16.113,-33.203,-14.160,-41.504,0.000
1621214498.676,-16.113,-29.297,-9.766,-30.273,0.000
1621214498.680,-10.254,-33.203,-6.836,-15.137,0.000
1621214498.684,-19.531,-38.086,-10.254,-27.344,0.000
1621214498.688,-21.973,-40.527,-10.254,-38.086,0.000
1621214498.692,-13.672,-41.504,-6.348,-21.973,0.000
1621214498.696,-15.137,-39.551,-6.836,-11.230,0.000
1621214498.699,-11.230,-34.668,-8.301,-2.930,0.000
1621214498.703,-13.184,-36.133,-6.348,-5.371,0.000
1621214498.707,-10.254,-45.410,-5.371,-13.184,0.000
1621214498.711,-14.648,-45.410,-3.418,-4.883,0.000
1621214498.715,-21.484,-42.480,0.488,-16.602,0.000
1621214498.719,-25.391,-38.086,-2.441,-39.062,0.000
1621214498.723,-27.344,-38.086,-12.695,-43.945,0.000
1621214498.727,-5.859,-41.504,-9.766,-25.391,0.000
1621214498.731,-1.465,-37.598,-6.348,-16.113,0.000
1621214498.735,-17.578,-34.668,-10.742,-29.297,0.000
1621214498.739,-19.043,-41.504,-9.766,-34.180,0.000
1621214498.742,-15.137,-42.969,-2.930,-11.719,0.000
1621214498.746,-21.973,-39.551,-3.906,-6.348,0.000
1621214498.750,-24.414,-36.133,-12.207,-22.461,0.000
1621214498.754,-24.414,-30.273,-12.207,-30.762,0.000
1621214498.758,-26.367,-33.691,-9.766,-34.668,0.000
1621214498.762,-32.227,-40.527,-12.695,-37.598,0.000
1621214498.766,-34.668,-45.898,-16.602,-45.898,0.000
1621214498.770,-34.180,-47.852,-18.066,-45.898,0.000
1621214498.774,-39.062,-40.527,-14.160,-42.969,0.000
1621214498.778,-43.945,-38.574,-12.695,-41.992,0.000
1621214498.782,-41.504,-41.016,-20.020,-45.410,0.000
1621214498.786,-41.016,-46.875,-20.020,-50.293,0.000
1621214498.789,-36.133,-49.316,-8.789,-33.203,0.000
1621214498.793,-36.621,-44.922,-6.348,-18.066,0.000
1621214498.797,-37.598,-45.898,-15.625,-19.043,0.000
1621214498.801,-36.133,-44.922,-13.672,-7.324,0.000
1621214498.805,-30.762,-41.504,-9.766,-5.371,0.000
1621214498.809,-20.996,-41.504,-8.789,-20.508,0.000
1621214498.813,-31.250,-46.387,-10.254,-20.996,0.000
1621214498.817,-22.949,-44.922,-15.625,-24.902,0.000
1621214498.821,-16.113,-37.598,-17.578,-33.203,0.000
1621214498.825,-17.578,-35.645,-17.578,-29.297,0.000
1621214498.829,-14.648,-32.227,-15.625,-20.996,0.000
1621214498.832,-8.789,-32.227,-9.766,-19.531,0.000
1621214498.836,-6.348,-35.156,-7.812,-26.855,0.000
1621214498.840,-10.254,-26.855,-4.883,-30.762,0.000
1621214498.844,-11.719,-27.344,1.953,-24.414,0.000
1621214498.848,-13.184,-36.621,-3.906,-17.578,0.000
1621214498.852,-34.668,-42.480,-6.836,-23.438,0.000
1621214498.856,-39.062,-41.504,-4.395,-39.551,0.000
1621214498.860,-23.438,-39.062,-5.859,-35.645,0.000
1621214498.864,-24.902,-37.598,-3.906,-21.484,0.000
1621214498.868,-32.715,-36.133,1.953,-28.320,0.000
1621214498.872,-27.832,-32.227,3.418,-37.598,0.000
1621214498.875,-26.367,-34.180,2.441,-35.645,0.000
1621214498.879,-33.203,-34.668,6.348,-29.785,0.000
1621214498.883,-30.273,-28.320,5.371,-33.691,0.000
1621214498.887,-20.020,-30.762,1.953,-32.715,0.000
1621214498.891,-21.973,-34.180,0.000,-20.996,0.000
1621214498.895,-21.973,-31.738,0.000,-12.695,0.000
1621214498.899,-26.367,-33.203,3.418,-20.020,0.000
1621214498.903,-28.320,-42.480,1.953,-27.344,0.000
1621214498.907,-13.184,-43.945,0.000,-22.949,0.000
1621214498.911,-13.184,-40.039,-0.977,-25.879,0.000
1621214498.915,-10.742,-40.527,-1.465,-23.926,0.000
1621214498.918,-16.113,-38.574,-1.465,-20.508,0.000
1621214498.922,-27.344,-37.598,-3.906,-26.367,0.000
1621214498.926,-31.738,-42.969,-5.859,-22.461,0.000
1621214498.930,-29.297,-38.086,-6.836,-21.484,0.000
1621214498.934,-11.230,-25.391,-1.953,-22.949,0.000
1621214498.938,-5.371,-27.344,-2.930,-15.625,0.000
1621214498.942,-16.113,-36.133,-6.348,-20.020,0.000
1621214498.946,-19.531,-41.992,-0.488,-19.043,0.000
1621214498.949,-19.043,-43.457,1.953,-14.648,0.000
1621214498.954,-25.879,-39.551,-1.465,-30.273,0.000
1621214498.958,-32.227,-42.480,-8.789,-41.992,0.000
1621214498.961,-25.879,-46.875,-4.395,-25.879,0.000
1621214498.965,-28.320,-44.922,0.977,-18.066,0.000
1621214498.969,-35.156,-41.504,-5.859,-36.133,0.000
1621214498.973,-30.273,-47.363,-11.719,-42.480,0.000
1621214498.977,-23.438,-41.504,-9.766,-41.504,0.000
1621214498.981,-20.996,-36.621,-2.930,-34.668,0.000
1621214498.985,-15.625,-39.062,-0.488,-25.391,0.000
1621214498.989,-22.949,-36.133,0.000,-37.109,0.000
1621214498.992,-32.715,-34.180,0.000,-35.156,0.000
1621214498.996,-21.484,-35.645,-1.953,-21.973,0.000
1621214499.001,-23.926,-43.945,-2.441,-22.461,0.000
1621214499.004,-17.578,-46.387,-1.465,-17.578,0.000
1621214499.008,-21.973,-42.480,-3.418,-15.625,0.000
1621214499.012,-21.484,-35.645,-1.465,-7.812,0.000
1621214499.016,-18.066,-34.180,-1.465,-4.395,0.000
1621214499.020,-11.719,-37.598,-7.812,-21.973,0.000
1621214499.024,-15.137,-43.457,-7.324,-34.668,0.000
1621214499.028,-21.484,-42.969,-0.488,-17.578,0.000
1621214499.032,15.137,-32.715,0.000,-14.160,0.000
1621214499.035,-9.766,-30.762,-1.953,-25.391,0.000
1621214499.039,-41.016,-35.156,-1.953,-27.832,0.000
1621214499.043,-15.625,-42.480,1.465,-20.508,0.000
1621214499.047,-18.555,-44.922,-3.906,-7.812,0.000
1621214499.051,-19.043,-43.457,-6.348,-21.973,0.000
1621214499.055,-17.578,-33.691,-1.465,-39.062,0.000
1621214499.059,-35.645,-36.621,-6.836,-34.668,0.000
1621214499.063,-36.133,-46.387,-6.836,-25.879,0.000
1621214499.067,-41.504,-39.062,-7.324,-26.855,0.000
1621214499.071,-39.551,-41.504,-6.836,-32.715,0.000
1621214499.075,-20.996,-40.039,-0.488,-36.133,0.000
1621214499.078,-21.973,-30.273,-1.465,-34.180,0.000
1621214499.082,-42.480,-38.574,-5.859,-33.691,0.000
1621214499.086,-54.199,-51.270,-9.766,-31.738,0.000
1621214499.090,-28.320,-50.781,-8.301,-26.367,0.000
1621214499.094,-23.926,-41.504,-5.371,-23.438,0.000
1621214499.098,-24.902,-41.016,-9.277,-20.508,0.000
1621214499.102,-19.531,-45.410,-14.160,-14.648,0.000
1621214499.106,-25.879,-37.598,-10.254,-18.066,0.000
1621214499.110,-11.719,-30.762,-1.953,-20.996,0.000
1621214499.114,-6.348,-27.832,-0.977,-20.020,0.000
1621214499.118,2.441,-30.273,-6.836,-25.879,0.000
1621214499.121,11.719,-36.133,-2.930,-15.625,0.000
1621214499.125,2.930,-27.344,4.395,-3.418,0.000
1621214499.129,3.418,-25.879,-3.418,-2.930,0.000
1621214499.133,-9.766,-34.668,-12.207,-9.766,0.000
1621214499.137,-21.484,-38.086,-11.719,-17.578,0.000
1621214499.141,-19.531,-31.738,-6.348,-3.906,0.000
1621214499.145,-11.230,-37.598,-5.371,-6.348,0.000
1621214499.149,-8.301,-45.898,-6.836,-8.301,0.000
1621214499.153,-3.418,-41.016,-5.859,-13.184,0.000
1621214499.157,-9.277,-45.410,-6.348,-28.809,0.000
1621214499.161,-31.250,-51.270,-6.836,-21.484,0.000
1621214499.164,-28.809,-56.641,-11.719,-20.508,0.000
1621214499.168,-18.066,-54.688,-9.277,-28.320,0.000
1621214499.172,-23.438,-47.363,-4.395,-26.855,0.000
1621214499.176,-11.230,-46.875,-2.930,-18.066,0.000
1621214499.180,-20.996,-41.992,-2.930,-20.996,0.000
1621214499.184,-28.809,-45.898,-4.395,-34.180,0.000
1621214499.188,-26.367,-49.805,-7.324,-44.434,0.000
1621214499.192,-30.273,-50.293,-6.836,-31.250,0.000
1621214499.196,-42.969,-64.941,-7.324,-20.508,0.000
1621214499.200,-39.062,-59.082,-11.230,-29.297,0.000
1621214499.204,-28.809,-44.922,-12.207,-37.598,0.000
1621214499.207,-31.250,-42.969,-10.254,-34.180,0.000
1621214499.211,-25.391,-36.133,-6.348,-24.902,0.000
1621214499.215,-22.461,-31.738,-6.836,-27.832,0.000
1621214499.219,-29.785,-34.180,-9.277,-38.574,0.000
1621214499.223,-18.555,-36.133,-11.719,-38.574,0.000
1621214499.227,-14.648,-41.504,-10.742,-37.598,0.000
1621214499.231,-19.531,-49.316,-7.812,-35.645,0.000
1621214499.235,-20.996,-46.875,-13.184,-28.809,0.000
1621214499.239,-27.344,-42.480,-16.113,-40.039,0.000
1621214499.243,-39.062,-48.340,-22.461,-51.758,0.000
1621214499.247,-47.363,-46.875,-23.438,-44.434,0.000
1621214499.250,-29.297,-43.457,-19.043,-34.180,0.000
1621214499.254,-19.043,-43.945,-18.555,-32.227,0.000
1621214499.258,-20.508,-42.969,-17.578,-35.645,0.000
1621214499.262,-9.766,-50.781,-13.184,-24.902,0.000
1621214499.266,-11.719,-49.805,-9.277,-22.949,0.000
1621214499.270,-40.527,-41.992,-7.812,-29.297,0.000
1621214499.274,-31.738,-35.645,-12.207,-26.367,0.000
1621214499.278,-7.324,-39.062,-15.625,-21.973,0.000
1621214499.282,-20.996,-41.992,-11.230,-17.578,0.000
1621214499.286,-21.484,-41.016,-8.789,-32.227,0.000
1621214499.290,-18.555,-40.039,-3.906,-39.551,0.000
1621214499.293,-13.184,-33.691,-4.883,-19.531,0.000
1621214499.297,-13.672,-39.551,-7.812,-7.812,0.000
1621214499.301,-23.438,-41.992,-5.859,-8.789,0.000
1621214499.305,-29.785,-38.086,-3.418,-10.254,0.000
1621214499.309,-18.066,-35.156,-1.953,-0.488,0.000
1621214499.313,-10.742,-35.156,0.977,8.301,0.000
1621214499.317,-46.387,-42.969,3.906,0.488,0.000
1621214499.321,-40.527,-48.828,0.000,-21.973,0.000
1621214499.324,-11.719,-44.922,-2.441,-37.109,0.000
1621214499.329,-25.879,-41.504,-6.348,-34.668,0.000
1621214499.333,-29.297,-37.109,-7.324,-37.598,0.000
1621214499.336,-35.645,-41.504,-4.883,-44.922,0.000
1621214499.340,-37.598,-46.387,-5.859,-43.945,0.000
1621214499.344,-29.297,-39.551,-6.836,-35.645,0.000
1621214499.348,-28.320,-41.992,-12.207,-30.273,0.000
1621214499.352,-27.832,-40.527,-17.578,-35.156,0.000
1621214499.356,-25.879,-36.621,-13.672,-36.621,0.000
1621214499.360,-26.855,-45.410,-8.789,-22.949,0.000
1621214499.364,-28.320,-47.363,-10.254,-30.273,0.000
1621214499.367,-21.484,-42.969,-14.648,-33.691,0.000
1621214499.371,-16.602,-45.410,-15.137,-23.926,0.000
1621214499.376,-22.949,-46.387,-13.184,-19.043,0.000
1621214499.379,-17.578,-43.945,-10.742,-17.090,0.000
1621214499.383,-16.602,-40.039,-7.812,-18.066,0.000
1621214499.387,-32.227,-41.504,-6.348,-20.996,0.000
1621214499.391,-45.898,-44.434,-9.277,-23.926,0.000
1621214499.395,-48.340,-43.945,-7.812,-19.531,0.000
1621214499.399,-41.504,-43.945,-2.441,-16.113,0.000
1621214499.403,-23.926,-46.387,-5.371,-15.137,0.000
1621214499.407,-20.020,-45.898,-11.230,-23.926,0.000
1621214499.410,-19.531,-47.363,-11.719,-24.902,0.000
1621214499.414,-39.062,-45.898,-11.719,-18.555,0.000
1621214499.418,-41.992,-34.180,-7.812,-19.043,0.000
1621214499.422,-4.883,-29.297,-11.230,-21.973,0.000
1621214499.426,-10.742,-25.879,-15.137,-19.531,0.000
1621214499.430,-20.020,-24.414,-11.230,-12.207,0.000
1621214499.434,-13.184,-32.715,-12.695,-18.066,0.000
1621214499.438,-32.227,-36.133,-12.695,-34.180,0.000
1621214499.442,-41.992,-37.598,-12.207,-31.250,0.000
1621214499.446,-30.762,-40.039,-12.695,-26.855,0.000
1621214499.450,-29.785,-46.875,-9.766,-45.898,0.000
1621214499.453,-40.039,-48.340,-7.324,-61.035,0.000
1621214499.457,-41.016,-43.457,-5.859,-58.594,0.000
1621214499.461,-35.645,-52.246,-3.906,-42.480,0.000
1621214499.465,-33.203,-54.688,-7.324,-37.109,0.000
1621214499.469,-24.902,-44.434,-8.789,-36.621,0.000
1621214499.473,-34.180,-40.039,-10.254,-30.762,0.000
1621214499.477,-37.598,-41.504,-14.648,-23.438,0.000
1621214499.481,-20.996,-42.969,-3.418,-13.672,0.000
1621214499.485,-11.230,-45.410,1.953,-16.602,0.000
1621214499.489,-13.672,-44.922,0.488,-24.902,0.000
1621214499.493,-7.324,-39.062,4.883,-7.812,0.000
1621214499.496,0.977,-32.227,5.371,0.977,0.000
1621214499.500,-11.230,-36.133,2.441,-6.836,0.000
1621214499.504,-24.414,-43.457,3.418,-9.766,0.000
1621214499.508,-25.391,-48.340,2.441,-3.906,0.000
1621214499.512,-20.996,-50.781,-1.953,-6.836,0.000
1621214499.516,-18.066,-50.781,-3.418,-26.855,0.000
1621214499.520,-22.949,-44.922,-4.883,-33.691,0.000
1621214499.524,-35.645,-41.504,-4.883,-32.715,0.000
1621214499.528,-39.551,-39.062,-6.348,-28.809,0.000
1621214499.532,-18.555,-38.574,-2.930,-26.855,0.000
1621214499.536,-8.301,-41.504,-3.418,-30.273,0.000
1621214499.539,-11.719,-42.480,-12.695,-26.855,0.000
1621214499.543,-19.531,-40.527,-11.719,-31.250,0.000
1621214499.547,-16.113,-41.504,-11.230,-28.809,0.000
1621214499.551,-11.230,-40.527,-6.348,-22.461,0.000
1621214499.555,-29.785,-35.645,0.488,-27.832,0.000
1621214499.559,-33.691,-28.809,-5.371,-25.391,0.000
1621214499.563,-30.762,-39.551,-13.672,-29.297,0.000
1621214499.567,-32.227,-50.293,-19.531,-38.086,0.000
1621214499.571,-37.598,-42.969,-11.230,-33.691,0.000
1621214499.575,-34.668,-36.621,-8.301,-25.391,0.000
1621214499.579,-27.832,-43.457,-15.625,-18.555,0.000
1621214499.582,-37.598,-55.176,-17.090,-18.066,0.000
1621214499.586,-49.805,-50.781,-17.578,-27.832,0.000
1621214499.590,-34.668,-38.574,-19.043,-31.738,0.000
1621214499.594,-26.855,-37.109,-20.020,-24.902,0.000
1621214499.598,-31.250,-41.992,-16.602,-8.789,0.000
1621214499.602,-10.254,-38.574,-10.742,-12.207,0.000
1621214499.606,-13.184,-37.109,-10.254,-31.250,0.000
1621214499.610,-16.602,-35.156,-13.184,-25.391,0.000
1621214499.614,-6.836,-28.809,-18.066,-14.648,0.000
1621214499.618,-14.160,-21.484,-12.207,-10.254,0.000
1621214499.622,-21.484,-27.832,-5.859,-15.137,0.000
1621214499.625,-17.090,-39.062,-9.766,-18.066,0.000
1621214499.629,-26.367,-39.062,-6.348,-7.324,0.000
1621214499.633,-32.715,-41.504,-9.766,-23.438,0.000
1621214499.637,-21.484,-44.434,-10.742,-34.180,0.000
1621214499.641,-25.391,-43.457,-8.789,-29.297,0.000
1621214499.645,-13.184,-49.316,-10.742,-30.762,0.000
1621214499.649,-22.461,-48.340,-11.719,-39.062,0.000
1621214499.653,-44.434,-45.898,-18.066,-51.270,0.000
1621214499.657,-57.129,-50.293,-16.602,-49.316,0.000
1621214499.661,-54.688,-57.617,-16.113,-44.922,0.000
1621214499.665,-29.785,-59.082,-17.578,-42.969,0.000
1621214499.668,-24.414,-56.152,-18.555,-36.133,0.000
1621214499.672,-36.621,-60.547,-18.555,-40.527,0.000
1621214499.676,-45.410,-52.734,-10.742,-41.016,0.000
1621214499.680,-34.668,-41.016,-6.836,-38.086,0.000
1621214499.684,-36.133,-42.480,-7.324,-38.574,0.000
1621214499.688,-36.133,-44.434,-8.789,-24.902,0.000
1621214499.692,-27.832,-47.852,-7.324,-14.648,0.000
1621214499.696,-33.691,-51.758,-3.906,-14.160,0.000
1621214499.699,-32.715,-52.734,-7.812,-11.719,0.000
1621214499.704,-27.344,-49.316,-7.324,-19.043,0.000
1621214499.708,-23.926,-40.527,-5.859,-31.738,0.000
1621214499.711,-29.297,-39.551,-6.836,-29.785,0.000
1621214499.715,-34.668,-49.316,-11.719,-23.926,0.000
1621214499.719,-21.973,-52.246,-13.672,-30.762,0.000
1621214499.723,-22.949,-41.504,-10.254,-29.785,0.000
1621214499.727,-37.598,-41.992,-7.324,-28.320,0.000
1621214499.731,-20.020,-43.945,-4.883,-20.020,0.000
1621214499.735,-20.996,-38.086,-8.301,-18.066,0.000
1621214499.739,-36.621,-40.039,-12.207,-25.391,0.000
1621214499.742,-17.578,-38.086,-7.324,-15.137,0.000
1621214499.746,-8.789,-32.715,-4.395,-5.371,0.000
1621214499.751,-20.508,-30.762,-10.254,-9.277,0.000
1621214499.754,-23.438,-36.621,-13.672,-25.391,0.000
1621214499.758,-29.785,-45.898,-16.113,-34.668,0.000
1621214499.762,-40.039,-44.434,-15.625,-33.203,0.000
1621214499.766,-33.691,-35.645,-13.672,-32.227,0.000
1621214499.770,-30.762,-35.645,-18.066,-39.062,0.000
1621214499.774,-24.414,-40.527,-12.695,-27.344,0.000
1621214499.778,-25.879,-42.969,-11.719,-11.719,0.000
1621214499.782,-27.832,-39.062,-15.625,-20.508,0.000
1621214499.785,-26.367,-32.715,-12.695,-32.227,0.000
1621214499.789,-31.250,-32.715,-6.836,-32.715,0.000
1621214499.793,-40.039,-33.203,-5.371,-28.809,0.000
1621214499.797,-35.645,-39.062,-12.695,-28.809,0.000
1621214499.801,-24.414,-43.457,-11.719,-30.273,0.000
1621214499.805,-37.109,-37.598,-8.301,-24.414,0.000
1621214499.809,-31.250,-39.062,-10.254,-17.578,0.000
1621214499.813,-16.113,-42.480,-8.789,-19.043,0.000
1621214499.817,-19.531,-36.621,-7.812,-26.367,0.000
1621214499.821,-24.414,-38.086,-14.160,-29.785,0.000
1621214499.825,-17.578,-45.410,-14.160,-26.855,0.000
1621214499.828,-26.367,-43.945,-15.625,-23.438,0.000
1621214499.832,-30.273,-36.621,-16.113,-25.391,0.000
1621214499.836,-20.996,-38.086,-14.160,-20.508,0.000
1621214499.840,-25.879,-48.828,-19.043,-22.949,0.000
1621214499.844,-19.531,-37.598,-17.090,-36.133,0.000
1621214499.848,-18.555,-24.414,-9.277,-34.668,0.000
1621214499.852,-23.926,-30.273,-9.766,-30.762,0.000
1621214499.856,-39.551,-28.809,-17.578,-39.062,0.000
1621214499.860,-42.969,-32.227,-18.555,-37.598,0.000
1621214499.864,-41.992,-39.062,-13.672,-31.250,0.000
1621214499.868,-63.477,-37.109,-12.695,-33.203,0.000
1621214499.871,-40.039,-32.715,-9.277,-28.320,0.000
1621214499.875,-37.109,-37.109,-16.113,-39.062,0.000
1621214499.879,-53.223,-41.016,-28.320,-51.270,0.000
1621214499.883,-41.504,-42.969,-22.461,-51.270,0.000
1621214499.887,-42.969,-41.504,-24.414,-56.641,0.000
1621214499.891,-39.062,-35.645,-25.391,-50.781,0.000
1621214499.895,-31.738,-33.203,-20.020,-35.645,0.000
1621214499.899,-32.715,-32.715,-19.531,-21.484,0.000
1621214499.903,-26.855,-33.203,-9.277,-15.137,0.000
1621214499.907,-25.879,-39.551,-6.836,-16.113,0.000
1621214499.911,-26.855,-46.387,-23.926,-19.531,0.000
1621214499.914,-21.973,-43.945,-22.949,-10.254,0.000
1621214499.918,-22.461,-35.156,-12.207,-12.207,0.000
1621214499.922,-19.531,-32.715,-9.766,-22.949,0.000
1621214499.926,-14.160,-37.109,-7.324,-12.695,0.000
1621214499.930,-25.391,-41.504,-7.324,-12.207,0.000
1621214499.934,-17.578,-38.574,-8.789,-13.672,0.000
1621214499.938,-5.859,-38.086,-7.324,-19.043,0.000
1621214499.942,-7.324,-41.504,-6.836,-20.508,0.000
1621214499.946,-2.930,-38.086,-10.254,-13.672,0.000
1621214499.950,-13.184,-37.109,-9.766,-19.043,0.000
1621214499.954,-15.625,-37.598,-6.836,-26.367,0.000
1621214499.957,-13.184,-39.062,-6.348,-31.738,0.000
1621214499.961,-20.020,-41.016,-3.906,-33.691,0.000
1621214499.965,-41.504,-43.945,-9.277,-29.785,0.000
1621214499.969,-45.898,-42.480,-9.277,-34.668,0.000
1621214499.973,-34.180,-39.551,-7.324,-34.668,0.000
1621214499.977,-40.039,-36.621,-9.277,-33.203,0.000
1621214499.981,-42.969,-41.016,-13.184,-48.828,0.000
1621214499.985,-38.086,-44.434,-11.719,-48.828,0.000
1621214499.989,-39.551,-36.621,-12.695,-46.875,0.000
1621214499.993,-42.969,-33.691,-11.719,-48.828,0.000
1621214499.997,-33.691,-36.621,-7.324,-40.527,0.000
1621214500.001,-32.715,-38.574,-11.230,-37.598,0.000
1621214500.004,-35.156,-36.621,-13.672,-27.832,0.000
1621214500.008,-27.344,-38.086,-8.789,-24.414,0.000
1621214500.012,-20.996,-36.133,-10.254,-29.297,0.000
1621214500.016,-20.508,-38.574,-19.043,-19.043,0.000
1621214500.020,-16.113,-40.527,-18.066,-17.090,0.000
1621214500.024,-21.973,-40.039,-15.137,-18.555,0.000
1621214500.028,-12.695,-36.621,-10.254,-7.812,0.000
1621214500.032,5.859,-37.109,-5.859,-3.418,0.000
1621214500.036,4.395,-40.527,-5.371,-13.184,0.000
1621214500.040,-11.230,-41.016,-8.789,-22.949,0.000
1621214500.044,-23.926,-43.945,-6.348,-17.090,0.000
1621214500.047,-23.438,-45.898,1.953,-9.766,0.000
1621214500.051,-18.555,-41.504,1.465,-19.531,0.000
1621214500.055,-27.832,-35.645,0.000,-23.438,0.000
1621214500.059,-36.621,-32.715,0.000,-15.137,0.000
1621214500.063,-20.508,-39.551,-3.418,-19.531,0.000
1621214500.067,-30.273,-43.945,-4.395,-27.832,0.000
1621214500.071,-49.805,-35.156,-6.348,-41.992,0.000
1621214500.075,-34.668,-31.250,-5.371,-45.410,0.000
1621214500.079,-23.438,-36.133,-4.883,-37.598,0.000
1621214500.083,-29.297,-40.039,-1.953,-38.086,0.000
1621214500.087,-26.855,-46.387,-1.953,-53.711,0.000
1621214500.090,-33.203,-50.293,-2.441,-53.711,0.000
1621214500.094,-37.109,-39.551,-5.371,-40.039,0.000
1621214500.098,-37.109,-36.133,-1.465,-43.945,0.000
1621214500.102,-36.133,-41.016,-0.977,-41.016,0.000
1621214500.106,-22.949,-42.480,-5.371,-35.156,0.000
1621214500.110,-18.555,-39.551,-1.465,-37.109,0.000
1621214500.114,-19.531,-34.668,0.488,-30.273,0.000
1621214500.118,-20.020,-31.250,4.395,-28.809,0.000
1621214500.121,-20.508,-35.645,3.418,-31.250,0.000
1621214500.126,-8.789,-42.969,-1.953,-21.973,0.000
1621214500.130,-8.789,-44.922,-3.418,-22.949,0.000
1621214500.133,-28.809,-40.527,-0.977,-22.949,0.000
1621214500.137,-17.090,-27.832,-2.441,-25.879,0.000
1621214500.141,5.859,-24.414,-4.883,-27.344,0.000
1621214500.145,-3.418,-29.785,-0.977,-18.555,0.000
1621214500.149,-5.371,-30.273,-3.418,-25.879,0.000
1621214500.153,-14.648,-39.062,-1.465,-35.156,0.000
1621214500.157,-28.320,-48.828,4.395,-33.203,0.000
1621214500.161,-24.902,-41.016,-0.977,-34.180,0.000
1621214500.164,-26.855,-34.180,0.000,-37.109,0.000
1621214500.168,-27.344,-37.109,4.883,-44.434,0.000
1621214500.173,-40.039,-40.527,0.977,-50.781,0.000
1621214500.176,-46.875,-44.922,-1.465,-50.293,0.000
1621214500.180,-33.691,-42.969,-4.883,-36.133,0.000
1621214500.184,-31.250,-43.457,-9.277,-22.461,0.000
1621214500.188,-28.320,-55.664,-9.277,-32.227,0.000
1621214500.192,-41.016,-56.152,-8.301,-37.109,0.000
1621214500.196,-45.410,-43.457,-11.230,-41.504,0.000
1621214500.200,-32.715,-38.086,-13.184,-46.875,0.000
1621214500.204,-22.949,-35.156,-9.766,-40.039,0.000
1621214500.207,-15.625,-36.133,-2.441,-31.250,0.000
1621214500.211,-23.438,-38.086,-5.859,-18.066,0.000
1621214500.215,-27.344,-39.062,-6.836,-12.695,0.000
1621214500.219,-13.184,-42.480,-5.859,-16.113,0.000
1621214500.223,-9.277,-44.434,-12.207,-19.043,0.000
1621214500.227,-6.836,-46.387,-11.230,-19.531,0.000
1621214500.231,7.324,-36.133,-8.301,-14.648,0.000
1621214500.235,5.371,-33.691,-10.254,-12.695,0.000
1621214500.239,-19.531,-41.504,-6.836,-14.648,0.000
1621214500.243,-22.461,-43.945,-5.859,-1.953,0.000
1621214500.247,4.395,-42.480,-5.859,0.488,0.000
1621214500.251,-2.441,-42.480,-4.883,-13.184,0.000
1621214500.254,-9.277,-49.805,-7.812,-10.742,0.000
1621214500.258,-6.348,-49.805,-11.230,-16.602,0.000
1621214500.262,-10.254,-40.527,-8.789,-32.227,0.000
1621214500.266,-13.672,-38.086,-2.441,-36.621,0.000
1621214500.270,-25.879,-36.133,-5.859,-40.527,0.000
1621214500.274,-46.875,-41.016,-7.812,-41.016,0.000
1621214500.278,-58.594,-47.852,-10.742,-47.363,0.000
1621214500.282,-47.363,-50.293,-15.625,-49.805,0.000
1621214500.286,-46.387,-52.734,-13.184,-46.875,0.000
1621214500.290,-44.922,-53.223,-15.137,-54.199,0.000
1621214500.294,-46.387,-48.340,-13.672,-46.875,0.000
1621214500.297,-54.688,-42.480,-11.230,-43.457,0.000
1621214500.301,-41.016,-42.969,-9.766,-49.805,0.000
1621214500.305,-41.016,-41.504,-6.348,-44.922,0.000
1621214500.309,-46.387,-41.016,-3.418,-46.387,0.000
1621214500.313,-29.785,-37.109,-3.418,-40.039,0.000
1621214500.317,-27.344,-35.645,-1.953,-32.227,0.000
1621214500.321,-37.598,-42.969,-5.371,-34.668,0.000
1621214500.325,-27.832,-37.109,-8.789,-32.227,0.000
1621214500.329,-20.020,-29.297,-5.859,-27.832,0.000
1621214500.333,-17.578,-27.344,-3.418,-16.602,0.000
1621214500.337,-16.602,-29.297,-4.883,-24.414,0.000
1621214500.340,-24.414,-31.250,-10.254,-33.203,0.000
1621214500.344,-12.695,-31.738,-15.625,-24.902,0.000
1621214500.348,-17.090,-35.645,-14.648,-7.812,0.000
1621214500.352,-14.648,-36.133,-4.395,-2.441,0.000
1621214500.356,-0.977,-34.180,-3.906,-20.020,0.000
1621214500.360,-18.066,-41.504,-10.254,-27.832,0.000
1621214500.364,-26.367,-40.527,-10.742,-27.832,0.000
1621214500.368,-22.461,-34.668,-8.789,-32.227,0.000
1621214500.372,-28.809,-36.621,-11.719,-41.016,0.000
1621214500.376,-39.062,-40.039,-20.996,-56.641,0.000
1621214500.380,-55.664,-47.852,-22.949,-56.152,0.000
1621214500.383,-55.664,-51.758,-17.578,-58.594,0.000
1621214500.387,-39.551,-44.922,-14.160,-64.453,0.000
1621214500.391,-36.621,-41.992,-10.254,-55.664,0.000
1621214500.395,-40.527,-42.480,-6.348,-48.340,0.000
1621214500.399,-56.641,-40.039,-4.883,-60.059,0.000
1621214500.403,-48.828,-39.551,0.488,-70.801,0.000
1621214500.407,-32.715,-41.992,1.465,-62.500,0.000
1621214500.411,-46.875,-41.992,0.977,-54.199,0.000
1621214500.415,-45.410,-46.387,3.906,-49.805,0.000
1621214500.419,-30.762,-48.828,0.977,-45.898,0.000
1621214500.423,-29.785,-43.945,1.953,-42.480,0.000
1621214500.426,-16.113,-36.133,5.859,-34.668,0.000
1621214500.430,-23.438,-27.832,5.859,-28.809,0.000
1621214500.434,-42.969,-25.391,1.953,-33.203,0.000
1621214500.438,-32.715,-36.133,-4.395,-25.879,0.000
1621214500.442,-25.879,-38.086,-4.395,-12.207,0.000
1621214500.446,-31.250,-25.391,0.977,-19.043,0.000
1621214500.450,-16.113,-26.367,1.953,-20.996,0.000
1621214500.454,-3.418,-32.227,-1.953,-17.578,0.000
1621214500.458,-10.742,-35.156,-9.277,-14.648,0.000
1621214500.462,-24.902,-43.457,-14.648,-17.090,0.000
1621214500.466,-23.926,-46.875,-12.207,-18.066,0.000
1621214500.469,-28.809,-47.852,-11.719,-21.484,0.000
1621214500.473,-35.645,-51.758,-9.766,-28.320,0.000
1621214500.477,-6.348,-46.875,-7.324,-26.855,0.000
1621214500.481,-9.766,-39.062,-10.742,-13.184,0.000
1621214500.485,-5.859,-40.039,-14.160,-9.766,0.000
1621214500.489,6.348,-40.039,-13.672,-30.273,0.000
1621214500.493,-2.930,-39.062,-13.184,-29.297,0.000
1621214500.497,-2.930,-36.621,-9.766,-16.113,0.000
1621214500.501,-4.395,-37.598,-9.766,-28.809,0.000
1621214500.505,-20.508,-40.039,-15.137,-39.551,0.000
1621214500.509,-23.926,-41.504,-10.742,-39.062,0.000
1621214500.512,-26.855,-42.480,-4.395,-32.715,0.000
1621214500.516,-35.156,-31.738,1.953,-28.320,0.000
1621214500.520,-34.668,-33.203,-2.930,-39.062,0.000
1621214500.524,-41.016,-41.992,-5.859,-49.316,0.000
1621214500.528,-45.898,-41.504,0.488,-39.551,0.000
1621214500.532,-31.738,-39.062,0.000,-30.762,0.000
1621214500.536,-31.250,-41.992,0.977,-38.086,0.000
1621214500.540,-34.668,-43.457,-3.418,-44.434,0.000
1621214500.543,-32.227,-42.480,-7.812,-39.551,0.000
1621214500.548,-38.086,-41.016,-10.254,-31.250,0.000
1621214500.552,-39.062,-45.898,-9.766,-28.809,0.000
1621214500.555,-37.109,-47.363,-7.324,-31.738,0.000
1621214500.559,-18.555,-47.363,-12.695,-18.066,0.000
1621214500.563,-14.160,-45.410,-11.719,0.977,0.000
1621214500.567,-19.531,-34.180,-2.930,2.441,0.000
1621214500.571,4.883,-32.227,-1.953,-6.348,0.000
1621214500.575,11.230,-34.180,-3.906,-7.324,0.000
1621214500.579,-3.418,-34.668,-8.789,-3.418,0.000
1621214500.583,3.906,-33.203,-11.230,-3.418,0.000
1621214500.586,4.395,-35.645,-10.254,-4.395,0.000
1621214500.590,-9.277,-41.504,-15.137,1.465,0.000
1621214500.595,-6.348,-41.504,-14.648,-8.789,0.000
1621214500.598,9.277,-33.691,-8.789,-16.602,0.000
1621214500.602,14.160,-30.273,-11.230,-19.043,0.000
1621214500.606,-5.371,-34.668,-12.695,-30.273,0.000
1621214500.610,-8.789,-37.598,-12.207,-31.250,0.000
1621214500.614,-19.043,-39.062,-15.625,-26.855,0.000
1621214500.618,-18.555,-43.945,-13.672,-20.020,0.000
1621214500.622,-16.602,-49.316,-12.695,-30.273,0.000
1621214500.626,-24.414,-45.410,-12.695,-38.574,0.000
1621214500.629,-20.996,-44.434,-10.742,-31.738,0.000
1621214500.633,-21.484,-46.387,-14.160,-38.086,0.000
1621214500.637,-32.715,-46.875,-13.184,-43.945,0.000
1621214500.641,-32.715,-50.781,-6.348,-39.062,0.000
1621214500.645,-27.344,-46.875,-6.836,-26.855,0.000
1621214500.649,-31.250,-40.039,-9.766,-26.855,0.000
1621214500.653,-20.508,-41.992,-8.301,-30.762,0.000
1621214500.657,-25.879,-45.410,-10.254,-20.020,0.000
1621214500.661,-29.297,-43.457,-11.230,-6.348,0.000
1621214500.665,-15.625,-46.875,-11.719,-1.953,0.000
1621214500.669,-23.438,-53.223,-9.277,-19.531,0.000
1621214500.673,-31.738,-46.875,-4.395,-27.832,0.000
1621214500.676,-26.855,-45.898,-9.277,-20.508,0.000
1621214500.680,-19.531,-42.969,-9.277,-14.648,0.000
1621214500.684,-8.301,-37.598,-9.277,-18.066,0.000
1621214500.688,-2.930,-41.016,-12.207,-20.508,0.000
1621214500.692,-8.301,-43.457,-11.230,-14.160,0.000
1621214500.696,-15.137,-41.504,-10.254,-3.906,0.000
1621214500.700,-9.277,-39.062,-4.883,-7.324,0.000
1621214500.704,-7.812,-38.574,-4.883,-17.090,0.000
1621214500.708,-37.598,-38.574,-4.883,-17.578,0.000
1621214500.712,-32.715,-35.156,-2.441,-26.855,0.000
1621214500.715,-16.113,-38.574,-2.930,-36.621,0.000
1621214500.719,-26.367,-44.922,-3.906,-47.363,0.000
1621214500.723,-19.531,-47.363,-10.254,-45.410,0.000
1621214500.727,-20.020,-40.527,-9.277,-39.062,0.000
1621214500.731,-26.855,-31.250,-5.371,-52.246,0.000
1621214500.735,-31.250,-32.715,-8.301,-66.406,0.000
1621214500.739,-36.621,-34.668,-11.719,-57.617,0.000
1621214500.743,-42.969,-40.527,-7.324,-39.551,0.000
1621214500.747,-52.734,-46.875,-6.836,-39.062,0.000
1621214500.751,-48.340,-38.086,-6.348,-35.156,0.000
1621214500.755,-38.086,-33.691,-1.465,-26.367,0.000
1621214500.758,-34.180,-40.527,0.977,-21.484,0.000
1621214500.762,-29.785,-35.156,-0.488,-12.207,0.000
1621214500.766,-41.504,-29.785,-2.441,-19.531,0.000
1621214500.770,-32.715,-34.180,-5.371,-22.949,0.000
1621214500.774,-13.184,-35.156,-8.789,-28.809,0.000
1621214500.778,-11.719,-41.016,-12.207,-38.086,0.000
1621214500.782,-6.836,-51.270,-14.160,-24.414,0.000
1621214500.786,-16.113,-40.527,-12.695,-15.625,0.000
1621214500.790,-20.508,-27.832,-10.254,-19.531,0.000
1621214500.794,-8.301,-34.180,-8.301,-12.695,0.000
1621214500.798,-12.207,-43.945,-10.254,-10.742,0.000
1621214500.802,-13.184,-41.992,-23.926,-20.020,0.000
1621214500.805,-14.648,-37.109,-26.855,-20.020,0.000
1621214500.809,-25.879,-37.598,-19.043,-15.137,0.000
1621214500.813,-28.809,-35.645,-16.113,-17.578,0.000
1621214500.817,-23.438,-31.250,-13.672,-25.391,0.000
1621214500.821,-19.043,-31.738,-17.090,-40.039,0.000
1621214500.825,-24.414,-35.156,-21.973,-54.688,0.000
1621214500.829,-32.227,-36.133,-17.090,-46.387,0.000
1621214500.833,-49.316,-38.086,-13.184,-30.273,0.000
1621214500.837,-54.199,-41.016,-12.695,-36.621,0.000
1621214500.841,-41.016,-39.551,-16.602,-46.387,0.000
1621214500.845,-38.574,-39.551,-17.090,-36.133,0.000
1621214500.848,-39.551,-43.457,-11.719,-29.297,0.000
1621214500.852,-49.316,-35.645,-10.254,-36.621,0.000
1621214500.856,-36.133,-28.809,-9.277,-34.180,0.000
1621214500.860,-27.344,-35.156,-11.719,-23.438,0.000
1621214500.864,-37.598,-34.180,-8.789,-15.137,0.000
1621214500.868,-28.320,-26.367,-8.789,-10.254,0.000
1621214500.872,-25.391,-35.645,-11.719,-4.395,0.000
1621214500.876,-24.414,-37.598,-12.695,-4.883,0.000
1621214500.880,-12.207,-27.344,-11.719,-8.301,0.000
1621214500.884,-10.254,-27.832,-10.254,-0.488,0.000
1621214500.888,-14.648,-34.180,-8.301,2.930,0.000
1621214500.891,-20.508,-36.621,-5.371,0.488,0.000
1621214500.895,-16.113,-32.227,-1.953,2.930,0.000
1621214500.899,1.953,-27.832,-0.488,2.441,0.000
1621214500.903,-3.418,-27.832,-4.395,-1.465,0.000
1621214500.907,-13.184,-25.879,-7.812,-16.113,0.000
1621214500.911,-23.926,-25.391,-4.883,-21.484,0.000
1621214500.915,-21.973,-32.715,-6.836,-13.184,0.000
1621214500.919,-21.484,-35.645,-12.695,-23.926,0.000
1621214500.923,-36.621,-38.574,-10.742,-40.527,0.000
1621214500.927,-27.832,-44.922,-10.742,-50.293,0.000
1621214500.931,-28.320,-36.133,-7.812,-38.574,0.000
1621214500.934,-32.715,-30.273,-2.930,-29.785,0.000
1621214500.938,-27.832,-33.691,-5.371,-30.273,0.000
1621214500.942,-26.855,-39.062,-6.348,-30.762,0.000
1621214500.946,-26.855,-54.199,-2.441,-30.762,0.000
1621214500.950,-25.879,-52.246,-2.930,-28.809,0.000
1621214500.954,-29.297,-44.922,2.441,-44.434,0.000
1621214500.958,-51.270,-57.129,5.371,-56.152,0.000
1621214500.962,-50.781,-41.504,0.977,-47.852,0.000
1621214500.965,-24.902,-51.270,4.883,-39.062,0.000
1621214500.970,-26.855,-68.848,9.277,-32.715,0.000
1621214500.973,-35.645,-41.016,2.930,-37.109,0.000
1621214500.977,-39.551,-40.039,0.000,-38.574,0.000
1621214500.981,-49.316,-37.598,-4.883,-43.945,0.000
1621214500.985,-48.828,-25.879,-8.301,-40.527,0.000
1621214500.989,-25.391,-24.902,-4.883,-31.250,0.000
1621214500.993,-14.648,-25.879,-8.301,-22.461,0.000
1621214500.997,-13.672,-25.879,-10.742,-14.160,0.000
1621214501.001,-12.695,-20.996,-8.789,-17.090,0.000
1621214501.005,1.953,-20.020,-7.812,-18.066,0.000
1621214501.008,-7.324,-27.344,-9.766,-22.461,0.000
1621214501.012,-11.719,-34.668,-7.812,-21.484,0.000
1621214501.016,-19.043,-30.762,-2.930,-15.137,0.000
1621214501.020,-22.461,-27.344,0.488,-12.695,0.000
1621214501.024,-15.625,-41.992,-8.789,-23.926,0.000
1621214501.028,-38.574,-40.039,-11.230,-23.438,0.000
1621214501.032,-40.039,-36.133,-10.254,-23.438,0.000
1621214501.036,-20.996,-39.062,-10.254,-26.367,0.000
1621214501.040,-17.578,-27.832,-3.906,-20.020,0.000
1621214501.044,-20.996,-22.461,-4.395,-23.438,0.000
1621214501.047,-27.832,-29.297,-8.789,-28.320,0.000
1621214501.051,-25.879,-28.809,-10.254,-33.691,0.000
1621214501.055,-20.020,-30.762,-9.766,-41.992,0.000
1621214501.059,-28.809,-31.250,-7.324,-42.969,0.000
1621214501.063,-43.457,-25.391,-3.906,-30.273,0.000
1621214501.067,-39.551,-30.273,-4.883,-20.508,0.000
1621214501.071,-46.387,-34.180,4.395,-22.949,0.000
1621214501.075,-40.527,-33.203,9.277,-25.879,0.000
1621214501.079,-28.320,-31.250,0.000,-20.020,0.000
1621214501.083,-35.156,-26.855,-4.883,-19.043,0.000
1621214501.087,-39.551,-26.367,-3.906,-29.785,0.000
1621214501.091,-48.828,-29.297,-6.348,-35.156,0.000
1621214501.094,-34.668,-32.715,-11.719,-33.203,0.000
1621214501.098,-33.203,-39.062,-10.742,-32.715,0.000
1621214501.102,-41.016,-37.109,-5.371,-30.273,0.000
1621214501.106,-17.578,-32.715,-6.836,-28.809,0.000
1621214501.110,-10.742,-34.180,-4.395,-28.809,0.000
1621214501.114,-22.949,-31.738,-1.953,-22.461,0.000
1621214501.118,-27.832,-30.273,-2.930,-22.461,0.000
1621214501.122,-18.066,-34.668,0.000,-27.832,0.000
1621214501.126,-22.949,-36.621,1.953,-21.973,0.000
1621214501.130,-17.090,-39.551,1.465,-18.555,0.000
1621214501.134,-1.465,-35.156,2.930,-22.949,0.000
1621214501.137,-16.602,-31.738,3.418,-27.344,0.000
1621214501.141,-20.996,-30.273,2.441,-32.715,0.000
1621214501.145,-12.207,-22.949,6.348,-19.531,0.000
1621214501.149,-10.742,-25.391,2.930,-12.207,0.000
1621214501.153,-13.184,-32.227,-9.277,-26.855,0.000
1621214501.157,-32.227,-35.645,-9.766,-29.297,0.000
1621214501.161,-24.902,-41.504,-2.441,-15.625,0.000
1621214501.165,-15.625,-43.457,-2.930,-20.508,0.000
1621214501.169,-23.438,-33.203,-1.953,-29.785,0.000
1621214501.173,-25.391,-33.203,1.465,-26.367,0.000
1621214501.177,-34.180,-40.527,0.488,-29.297,0.000
1621214501.180,-40.039,-41.504,-5.859,-26.855,0.000
1621214501.184,-42.969,-41.504,-13.184,-36.133,0.000
1621214501.188,-46.387,-47.852,-11.719,-53.711,0.000
1621214501.192,-35.156,-45.410,-12.207,-43.945,0.000
1621214501.196,-34.668,-41.504,-11.719,-39.551,0.000
1621214501.200,-34.180,-39.551,-9.277,-41.992,0.000
1621214501.204,-24.902,-35.645,-12.695,-45.410,0.000
1621214501.208,-20.508,-34.668,-11.230,-48.340,0.000
1621214501.212,-20.508,-36.133,-8.789,-38.574,0.000
1621214501.216,-13.672,-39.062,-8.301,-30.273,0.000
1621214501.220,-15.625,-47.852,-10.254,-30.762,0.000
1621214501.223,-9.766,-53.223,-12.207,-28.320,0.000
1621214501.227,-9.766,-41.504,-5.371,-20.996,0.000
1621214501.231,-11.230,-34.180,-2.930,-14.648,0.000
1621214501.235,-17.090,-33.203,-4.883,-12.695,0.000
1621214501.239,-30.273,-31.738,-9.277,-27.344,0.000
1621214501.243,-26.855,-37.598,-10.254,-35.645,0.000
1621214501.247,-26.367,-50.293,-11.230,-25.391,0.000
1621214501.251,-21.484,-50.293,-12.695,-22.461,0.000
1621214501.255,-21.484,-42.969,-11.230,-33.691,0.000
1621214501.259,-26.855,-36.133,-9.766,-30.762,0.000
1621214501.263,-31.250,-36.133,-12.207,-19.043,0.000
1621214501.266,-20.020,-37.598,-9.766,-25.391,0.000
1621214501.270,-25.391,-27.344,-6.836,-28.809,0.000
1621214501.274,-32.715,-22.461,-8.301,-23.926,0.000
1621214501.278,-5.371,-29.785,-7.324,-19.043,0.000
1621214501.282,-10.254,-39.062,-5.859,-18.555,0.000
1621214501.286,-16.602,-34.180,-10.254,-27.832,0.000
1621214501.290,-20.508,-31.250,-11.719,-34.668,0.000
1621214501.294,-23.438,-36.133,-10.742,-34.668,0.000
1621214501.298,-17.090,-30.273,-6.836,-32.227,0.000
1621214501.302,-21.484,-24.414,-2.441,-34.180,0.000
1621214501.306,-34.668,-26.367,-3.906,-37.598,0.000
1621214501.309,-16.602,-35.156,-3.418,-33.691,0.000
1621214501.313,-11.230,-47.363,-0.488,-17.090,0.000
1621214501.317,-32.227,-39.062,-0.488,-10.742,0.000
1621214501.321,-18.066,-29.297,4.395,-22.949,0.000
1621214501.325,-19.531,-33.203,3.418,-16.602,0.000
1621214501.329,-26.367,-38.574,-3.906,-15.625,0.000
1621214501.333,-20.020,-45.898,-1.953,-17.090,0.000
1621214501.337,-19.531,-39.551,-0.977,-9.766,0.000
1621214501.340,-25.391,-35.156,-2.930,-11.719,0.000
1621214501.345,-26.855,-41.992,-1.465,-9.766,0.000
1621214501.349,-17.090,-42.480,-0.488,-4.395,0.000
1621214501.352,-27.344,-40.527,0.000,-6.836,0.000
1621214501.356,-33.203,-38.574,-7.324,-10.742,0.000
1621214501.360,-20.508,-31.250,-7.324,-5.859,0.000
1621214501.364,-25.879,-28.320,0.977,-2.930,0.000
1621214501.368,-30.762,-30.273,-3.906,-8.789,0.000
1621214501.372,-15.137,-33.691,-10.742,-20.508,0.000
1621214501.376,-10.254,-35.645,-11.230,-29.297,0.000
1621214501.380,-18.555,-36.133,-7.812,-11.719,0.000
1621214501.383,-21.484,-28.320,-4.395,-5.371,0.000
1621214501.387,-30.273,-33.691,-7.812,-24.414,0.000
1621214501.392,-46.875,-45.898,-11.230,-34.180,0.000
1621214501.395,-40.039,-38.574,-13.184,-31.738,0.000
1621214501.399,-36.133,-32.715,-13.184,-27.832,0.000
1621214501.403,-43.945,-33.203,-10.742,-26.367,0.000
1621214501.407,-34.668,-30.762,-12.207,-24.414,0.000
1621214501.411,-28.809,-30.762,-12.695,-18.066,0.000
1621214501.415,-24.902,-46.387,-10.254,-11.719,0.000
1621214501.419,-25.391,-55.176,-8.789,-20.020,0.000
1621214501.423,-34.180,-40.527,-8.789,-28.809,0.000
1621214501.426,-30.762,-34.668,-11.719,-27.344,0.000
1621214501.430,-19.531,-39.062,-12.695,-15.137,0.000
1621214501.434,-14.648,-41.016,-14.160,-3.418,0.000
1621214501.438,-17.090,-42.969,-11.230,-3.906,0.000
1621214501.442,-11.230,-42.480,-4.395,2.441,0.000
1621214501.446,-14.648,-40.527,-6.348,8.301,0.000
1621214501.450,-20.996,-38.086,-8.789,0.977,0.000
1621214501.454,-2.441,-37.109,-12.207,-8.789,0.000
1621214501.458,3.418,-36.621,-13.672,-0.488,0.000
1621214501.462,5.859,-31.250,-8.301,9.766,0.000
1621214501.466,-0.488,-38.574,-8.301,-5.371,0.000
1621214501.469,-7.812,-45.410,-13.672,-23.438,0.000
1621214501.473,-7.324,-41.016,-13.672,-21.484,0.000
1621214501.477,-19.043,-36.621,-12.207,-28.320,0.000
1621214501.481,-36.133,-37.109,-16.113,-34.668,0.000
1621214501.485,-33.203,-40.039,-21.484,-33.203,0.000
1621214501.489,-32.715,-41.016,-17.578,-41.016,0.000
1621214501.493,-42.969,-40.527,-18.555,-43.945,0.000
1621214501.497,-39.551,-47.363,-21.484,-41.016,0.000
1621214501.501,-42.969,-47.852,-18.555,-37.598,0.000
1621214501.505,-32.715,-39.062,-20.996,-35.645,0.000
1621214501.509,-20.020,-43.945,-22.461,-27.832,0.000
1621214501.512,-24.414,-43.457,-18.066,-25.391,0.000
1621214501.516,-20.996,-38.086,-11.230,-21.484,0.000
1621214501.520,-25.879,-41.992,-3.418,-20.020,0.000
1621214501.524,-33.691,-41.992,-0.977,-29.297,0.000
1621214501.528,-19.043,-34.668,-2.930,-26.367,0.000
1621214501.532,5.859,-35.645,-7.324,-24.902,0.000
1621214501.536,-16.602,-41.016,-13.184,-28.809,0.000
1621214501.540,-24.902,-42.480,-13.184,-26.367,0.000
1621214501.544,-0.488,-47.852,-8.789,-14.160,0.000
1621214501.548,-3.906,-53.711,-9.766,-3.418,0.000
1621214501.552,-18.066,-49.316,-9.766,3.418,0.000
1621214501.555,-26.367,-45.410,-12.207,-7.812,0.000
1621214501.559,-20.996,-43.945,-13.184,-21.973,0.000
1621214501.563,-8.789,-53.223,-7.812,-5.859,0.000
1621214501.567,-12.695,-50.781,-7.324,-2.930,0.000
1621214501.571,-21.484,-39.551,-4.883,-16.113,0.000
1621214501.575,-10.742,-42.480,-2.441,-9.277,0.000
1621214501.579,-22.949,-42.480,-0.488,-13.672,0.000
1621214501.583,-41.992,-37.598,-2.441,-29.785,0.000
1621214501.587,-38.086,-42.480,-7.324,-44.922,0.000
1621214501.591,-23.438,-42.969,-11.719,-41.504,0.000
1621214501.595,-30.762,-46.387,-18.555,-40.039,0.000
1621214501.598,-41.504,-45.898,-15.137,-40.527,0.000
1621214501.602,-33.203,-42.480,-6.836,-36.133,0.000
1621214501.606,-35.645,-48.828,-5.859,-39.062,0.000
1621214501.610,-34.180,-37.598,-10.742,-25.391,0.000
1621214501.614,-32.715,-30.273,-12.695,-18.066,0.000
1621214501.618,-43.457,-40.527,-8.789,-25.879,0.000
1621214501.622,-45.898,-41.992,-7.324,-31.250,0.000
1621214501.626,-36.133,-41.016,-5.859,-27.344,0.000
1621214501.630,-24.414,-39.062,-7.812,-19.531,0.000
1621214501.634,-19.531,-36.621,-9.277,-22.461,0.000
1621214501.638,-24.414,-38.574,-5.859,-21.484,0.000
1621214501.641,-40.527,-35.645,-6.348,-34.180,0.000
1621214501.645,-36.621,-33.203,-9.277,-37.109,0.000
1621214501.649,-18.066,-37.598,-3.906,-22.461,0.000
1621214501.653,-9.766,-40.039,4.395,-19.043,0.000
1621214501.657,-10.742,-33.203,3.418,-15.137,0.000
1621214501.661,-9.766,-31.738,-4.395,-13.672,0.000
1621214501.665,-14.648,-40.039,-3.418,-14.160,0.000
1621214501.669,-2.441,-35.156,-2.441,-19.531,0.000
1621214501.673,-5.371,-32.715,-6.836,-22.949,0.000
1621214501.677,-26.367,-42.480,-11.230,-23.438,0.000
1621214501.681,-17.578,-45.898,-13.184,-26.855,0.000
1621214501.684,-13.672,-41.504,-12.695,-30.273,0.000
1621214501.688,-22.461,-45.410,-11.230,-31.738,0.000
1621214501.692,-23.926,-50.293,-9.277,-28.320,0.000
1621214501.696,-28.809,-42.969,-10.254,-19.531,0.000
1621214501.700,-25.879,-46.875,-8.301,-16.113,0.000
1621214501.704,-19.531,-47.852,-3.906,-23.438,0.000
1621214501.708,-15.137,-34.180,0.000,-23.926,0.000
1621214501.712,-15.625,-37.109,0.488,-18.555,0.000
1621214501.715,-24.902,-45.898,0.977,-13.184,0.000
1621214501.720,-30.273,-42.969,-4.395,-22.461,0.000
1621214501.724,-44.922,-43.457,-9.766,-35.156,0.000
1621214501.727,-30.273,-50.781,-5.859,-32.227,0.000
1621214501.731,-13.184,-56.152,-4.395,-23.438,0.000
1621214501.735,-38.086,-46.875,-12.207,-29.297,0.000
1621214501.739,-42.969,-36.621,-11.719,-33.203,0.000
1621214501.743,-18.555,-34.180,-7.324,-21.484,0.000
1621214501.747,-14.160,-40.527,-8.301,-5.859,0.000
1621214501.751,-22.461,-45.898,-7.812,-12.695,0.000
1621214501.755,-34.180,-48.340,-10.254,-22.949,0.000
1621214501.759,-34.668,-47.852,-12.207,-17.090,0.000
1621214501.762,-19.531,-40.039,-7.324,-6.348,0.000
1621214501.767,-11.719,-30.273,-4.883,-4.395,0.000
1621214501.770,-12.207,-22.949,-6.348,-13.184,0.000
1621214501.774,-4.883,-25.391,-5.859,-17.578,0.000
1621214501.778,2.441,-37.109,-4.883,-12.207,0.000
1621214501.782,-11.230,-32.227,-9.766,-22.461,0.000
1621214501.786,-20.020,-29.785,-12.695,-23.926,0.000
1621214501.790,-2.441,-36.621,-10.254,-20.020,0.000
1621214501.794,-2.441,-32.227,-10.254,-28.809,0.000
1621214501.798,-16.602,-33.203,-11.719,-31.738,0.000
1621214501.801,-12.207,-43.457,-13.184,-28.320,0.000
1621214501.805,-18.066,-45.410,-12.207,-23.438,0.000
1621214501.809,-17.090,-38.086,-9.766,-38.086,0.000
1621214501.813,-10.254,-33.203,-7.324,-39.062,0.000
1621214501.817,-28.320,-39.551,-7.324,-28.320,0.000
1621214501.821,-49.316,-44.922,-12.207,-41.504,0.000
1621214501.825,-51.758,-40.039,-14.648,-48.340,0.000
1621214501.829,-43.945,-38.574,-12.207,-31.250,0.000
1621214501.833,-27.832,-45.410,-7.324,-13.672,0.000
1621214501.837,-20.996,-53.223,-5.371,-7.812,0.000
1621214501.841,-30.762,-45.410,-7.812,-26.367,0.000
1621214501.844,-33.691,-31.738,-6.836,-26.367,0.000
1621214501.848,-20.020,-28.809,0.488,-7.324,0.000
1621214501.852,-18.555,-26.855,1.953,-20.996,0.000
1621214501.856,-21.484,-26.367,-0.977,-37.109,0.000
1621214501.860,-20.996,-36.621,-2.930,-33.203,0.000
1621214501.864,-15.625,-41.504,-3.906,-18.066,0.000
1621214501.868,-8.789,-35.156,-6.348,-15.625,0.000
1621214501.872,-21.973,-31.738,-15.625,-36.621,0.000
1621214501.876,-23.926,-27.832,-16.113,-39.551,0.000
1621214501.880,-6.836,-29.297,-9.766,-41.016,0.000
1621214501.884,-8.789,-30.273,-13.672,-43.945,0.000
1621214501.888,-27.344,-26.855,-17.578,-50.293,0.000
1621214501.891,1.953,-23.438,-13.184,-46.875,0.000
1621214501.895,-0.488,-25.879,-18.066,-37.109,0.000
1621214501.899,-13.672,-29.785,-29.785,-36.133,0.000
1621214501.903,4.395,-34.668,-25.879,-30.273,0.000
1621214501.907,-5.371,-36.133,-22.461,-25.391,0.000
1621214501.911,-11.230,-30.273,-20.020,-21.484,0.000
1621214501.915,-17.578,-28.320,-18.555,-29.297,0.000
1621214501.919,-28.320,-32.715,-15.625,-36.621,0.000
1621214501.923,-20.508,-38.574,-12.695,-29.297,0.000
1621214501.927,-5.859,-33.691,-13.184,-21.484,0.000
1621214501.931,-18.066,-31.250,-16.113,-24.414,0.000
1621214501.934,-29.785,-40.527,-14.648,-18.555,0.000
1621214501.938,-47.852,-51.270,-14.160,-18.066,0.000
1621214501.942,-49.805,-47.363,-17.090,-30.762,0.000
1621214501.946,-44.434,-36.621,-17.090,-24.902,0.000
1621214501.950,-42.969,-41.016,-17.090,-24.414,0.000
1621214501.954,-41.016,-49.316,-17.578,-27.344,0.000
1621214501.958,-34.180,-39.062,-19.043,-34.180,0.000
1621214501.962,-23.926,-29.297,-20.508,-35.645,0.000
1621214501.966,-32.227,-28.320,-21.973,-24.414,0.000
1621214501.970,-17.578,-36.133,-20.996,-25.879,0.000
1621214501.974,-10.254,-41.016,-16.602,-27.832,0.000
1621214501.977,-19.531,-31.250,-14.160,-42.969,0.000
1621214501.981,-10.254,-27.344,-17.578,-46.875,0.000
1621214501.985,-12.207,-38.574,-20.996,-40.039,0.000
1621214501.989,-20.996,-36.621,-19.043,-50.293,0.000
1621214501.993,-6.836,-21.973,-19.043,-49.805,0.000
1621214501.997,5.371,-14.648,-22.949,-34.668,0.000
1621214502.001,-1.953,-23.438,-24.902,-37.109,0.000
1621214502.005,-15.137,-29.785,-20.996,-46.875,0.000
1621214502.009,-4.883,-28.320,-19.043,-40.527,0.000
1621214502.013,6.836,-33.691,-21.484,-29.297,0.000
1621214502.017,1.465,-40.527,-20.020,-16.602,0.000
1621214502.020,-8.301,-40.527,-13.184,-19.531,0.000
1621214502.024,-17.090,-33.691,-9.766,-23.438,0.000
1621214502.028,-10.254,-31.738,-10.254,-12.695,0.000
1621214502.032,-15.137,-32.715,-9.277,-3.906,0.000
1621214502.036,-16.602,-35.156,-8.301,-16.113,0.000
1621214502.040,-19.043,-41.016,-11.230,-31.250,0.000
1621214502.044,-31.250,-40.039,-10.254,-32.227,0.000
1621214502.048,-24.902,-35.156,-12.207,-35.645,0.000
1621214502.052,-23.926,-40.039,-18.066,-35.156,0.000
1621214502.056,-20.020,-35.645,-15.137,-31.738,0.000
1621214502.060,-22.461,-38.574,-14.648,-31.738,0.000
1621214502.063,-27.832,-45.898,-17.090,-23.438,0.000
1621214502.067,-23.438,-36.133,-15.625,-15.625,0.000
1621214502.071,-26.855,-35.156,-15.625,-24.414,0.000
1621214502.075,-20.508,-39.062,-15.625,-21.484,0.000
1621214502.079,-30.762,-36.621,-14.160,-10.742,0.000
1621214502.083,-43.945,-36.133,-16.113,-12.207,0.000
1621214502.087,-37.109,-37.598,-18.066,-16.602,0.000
1621214502.091,-30.273,-42.480,-19.043,-19.531,0.000
1621214502.095,-31.738,-41.992,-19.043,-18.555,0.000
1621214502.099,-35.156,-38.574,-23.438,-26.367,0.000
1621214502.103,-40.039,-44.922,-24.414,-19.043,0.000
1621214502.106,-34.668,-44.922,-18.066,-9.277,0.000
1621214502.110,-23.926,-39.062,-15.137,-12.695,0.000
1621214502.114,-20.508,-30.762,-19.043,-15.137,0.000
1621214502.118,-18.555,-31.738,-20.020,-14.648,0.000
1621214502.122,-20.020,-39.551,-19.531,-13.672,0.000
1621214502.126,-12.695,-37.109,-20.508,-22.461,0.000
1621214502.130,-3.418,-28.320,-20.996,-18.555,0.000
1621214502.134,-11.719,-29.785,-22.461,-9.277,0.000
1621214502.137,-24.902,-37.109,-20.020,-3.418,0.000
1621214502.142,-18.066,-37.109,-15.137,-2.441,0.000
1621214502.146,-19.531,-37.598,-15.137,2.441,0.000
1621214502.149,-21.973,-40.527,-19.043,2.441,0.000
1621214502.153,-23.438,-47.363,-17.578,-17.090,0.000
1621214502.157,-18.066,-44.434,-16.113,-19.043,0.000
1621214502.161,-9.277,-38.574,-14.648,-9.277,0.000
1621214502.165,-20.508,-41.992,-10.254,2.930,0.000
1621214502.169,-22.949,-38.574,-7.324,-1.953,0.000
1621214502.173,-20.020,-34.180,-6.836,-21.973,0.000
1621214502.177,-14.160,-37.109,-10.742,-24.414,0.000
1621214502.180,0.977,-32.715,-17.090,-17.090,0.000
1621214502.184,-10.254,-33.203,-22.949,-22.461,0.000
1621214502.189,-14.160,-41.016,-19.531,-25.391,0.000
1621214502.192,-4.883,-48.340,-17.090,-26.855,0.000
1621214502.196,-17.578,-52.246,-13.184,-34.180,0.000
1621214502.200,-28.320,-50.781,-7.324,-29.785,0.000
1621214502.204,-38.086,-47.852,-7.324,-26.855,0.000
1621214502.208,-28.320,-40.039,-14.648,-27.832,0.000
1621214502.212,-10.742,-31.738,-18.066,-20.020,0.000
1621214502.216,-24.902,-29.785,-16.602,-9.277,0.000
1621214502.220,-27.832,-35.156,-13.672,-20.508,0.000
1621214502.223,-18.555,-40.039,-11.719,-30.273,0.000
1621214502.227,-25.879,-33.691,-15.137,-19.531,0.000
1621214502.231,-33.691,-33.203,-19.531,-21.484,0.000
1621214502.235,-42.480,-38.086,-18.555,-18.066,0.000
1621214502.239,-44.922,-32.715,-20.996,-17.578,0.000
1621214502.243,-31.738,-27.832,-20.996,-25.879,0.000
1621214502.247,-26.367,-31.250,-17.578,-16.113,0.000
1621214502.251,-22.461,-29.785,-20.996,-14.160,0.000
1621214502.255,-33.203,-32.715,-23.926,-29.297,0.000
1621214502.259,-40.039,-38.574,-21.484,-24.902,0.000
1621214502.263,-35.156,-26.855,-15.137,-17.090,0.000
1621214502.266,-25.391,-23.438,-17.090,-17.090,0.000
1621214502.270,-21.973,-29.297,-16.602,-18.066,0.000
1621214502.274,-38.574,-30.762,-12.695,-32.227,0.000
1621214502.278,-29.785,-33.691,-14.160,-29.297,0.000
1621214502.282,-13.672,-40.039,-19.531,-24.414,0.000
1621214502.286,-12.207,-38.574,-18.555,-32.227,0.000
1621214502.290,-10.742,-34.668,-19.531,-39.551,0.000
1621214502.294,-4.883,-33.691,-18.555,-32.227,0.000
1621214502.298,-1.953,-29.297,-14.648,-8.301,0.000
1621214502.302,-15.625,-36.621,-16.113,-15.625,0.000
1621214502.306,-22.461,-42.969,-17.090,-30.273,0.000
1621214502.309,-21.973,-45.410,-13.672,-19.043,0.000
1621214502.313,-25.391,-49.805,-9.277,-4.395,0.000
1621214502.317,-26.367,-45.898,-9.766,-9.277,0.000
1621214502.321,-48.340,-45.410,-7.324,-23.926,0.000
1621214502.325,-46.387,-50.781,-8.301,-27.832,0.000
1621214502.329,-9.766,-52.734,-5.859,-26.367,0.000
1621214502.333,-11.230,-43.945,0.000,-20.508,0.000
1621214502.337,-23.438,-41.504,-2.930,-16.602,0.000
1621214502.341,-12.207,-51.758,-3.418,-12.207,0.000
1621214502.345,6.836,-50.781,-4.395,-0.488,0.000
1621214502.349,-5.859,-38.086,-13.672,2.441,0.000
1621214502.352,-14.160,-33.691,-13.184,4.395,0.000
1621214502.356,-5.859,-32.227,-14.648,6.348,0.000
1621214502.360,-4.395,-31.250,-22.461,2.441,0.000
1621214502.364,-6.836,-37.109,-24.414,-3.906,0.000
1621214502.368,-5.859,-31.738,-18.555,-8.789,0.000
1621214502.372,-0.488,-23.926,-15.137,-19.043,0.000
1621214502.376,-0.977,-24.414,-17.578,-31.250,0.000
1621214502.380,-0.977,-21.973,-19.043,-34.668,0.000
1621214502.384,5.859,-27.832,-23.926,-34.180,0.000
1621214502.388,3.418,-35.645,-27.832,-33.203,0.000
1621214502.392,-12.207,-35.156,-24.414,-31.738,0.000
1621214502.395,-34.180,-36.133,-23.438,-35.645,0.000
1621214502.399,-39.062,-40.039,-26.367,-38.086,0.000
1621214502.403,-27.344,-44.434,-26.367,-35.645,0.000
1621214502.407,-38.574,-43.457,-24.414,-40.039,0.000
1621214502.411,-58.594,-37.598,-28.809,-55.664,0.000
1621214502.415,-66.406,-36.133,-28.320,-47.363,0.000
1621214502.419,-71.777,-33.691,-26.367,-43.457,0.000
1621214502.423,-64.453,-30.273,-27.832,-55.176,0.000
1621214502.427,-46.387,-35.156,-31.738,-55.176,0.000
1621214502.431,-44.434,-44.434,-32.227,-47.852,0.000
1621214502.435,-41.504,-40.039,-28.320,-44.434,0.000
1621214502.438,-34.180,-32.715,-30.762,-54.688,0.000
1621214502.442,-39.062,-27.832,-32.227,-50.293,0.000
1621214502.446,-36.133,-21.484,-25.879,-31.250,0.000
1621214502.450,-28.320,-25.879,-23.438,-14.648,0.000
1621214502.454,-26.367,-30.762,-29.297,-18.555,0.000
1621214502.458,-18.555,-25.879,-32.227,-21.973,0.000
1621214502.462,-20.508,-19.531,-29.785,-4.883,0.000
1621214502.466,-19.043,-21.484,-26.367,-3.418,0.000
1621214502.470,-18.066,-25.879,-27.832,-19.043,0.000
1621214502.474,-22.949,-24.902,-28.809,-23.926,0.000
1621214502.478,-3.418,-20.996,-24.414,-22.949,0.000
1621214502.481,3.906,-20.996,-22.949,-14.160,0.000
1621214502.485,-13.672,-19.531,-20.020,-5.371,0.000
1621214502.489,-30.273,-23.926,-17.090,-19.531,0.000
1621214502.493,-31.250,-36.133,-18.066,-36.621,0.000
1621214502.497,-28.320,-36.133,-13.672,-35.156,0.000
1621214502.501,-39.551,-41.504,-10.254,-37.109,0.000
1621214502.505,-29.297,-44.434,-12.695,-38.086,0.000
1621214502.509,-24.902,-33.691,-10.254,-36.621,0.000
1621214502.512,-41.504,-36.133,-8.789,-37.109,0.000
1621214502.517,-47.852,-44.922,-11.230,-35.645,0.000
1621214502.521,-43.457,-44.434,-9.277,-45.410,0.000
1621214502.524,-39.551,-41.992,-6.348,-49.805,0.000
1621214502.528,-39.551,-41.016,-12.695,-41.504,0.000
1621214502.532,-33.691,-40.527,-14.648,-37.598,0.000
1621214502.536,-48.828,-45.410,-8.789,-26.367,0.000
1621214502.540,-47.852,-49.316,-6.348,-21.484,0.000
1621214502.544,-17.578,-45.898,-7.324,-34.180,0.000
1621214502.548,-20.020,-39.551,-10.254,-34.180,0.000
1621214502.552,-22.949,-35.645,-13.184,-30.762,0.000
1621214502.555,-17.578,-34.180,-18.555,-38.086,0.000
1621214502.559,-21.973,-34.668,-25.391,-34.668,0.000
1621214502.564,-22.461,-35.645,-23.438,-20.508,0.000
1621214502.567,-14.160,-45.898,-21.973,-7.324,0.000
1621214502.571,-6.348,-45.410,-27.344,-12.695,0.000
1621214502.575,-9.277,-40.527,-28.320,-19.531,0.000
1621214502.579,-17.578,-33.203,-26.367,-19.531,0.000
1621214502.583,-2.441,-24.414,-22.461,-13.672,0.000
1621214502.587,-2.930,-33.691,-23.926,-8.301,0.000
1621214502.591,-14.160,-37.109,-22.461,-20.996,0.000
1621214502.595,-9.766,-26.367,-20.996,-24.414,0.000
1621214502.598,-13.672,-27.832,-24.902,-15.137,0.000
1621214502.602,-19.531,-40.039,-18.555,-17.578,0.000
1621214502.606,-21.973,-40.039,-10.254,-25.391,0.000
1621214502.610,-23.926,-32.715,-14.160,-27.832,0.000
1621214502.614,-22.461,-27.344,-13.672,-22.949,0.000
1621214502.618,-24.414,-31.250,-11.719,-18.066,0.000
1621214502.622,-42.969,-41.992,-17.090,-28.809,0.000
1621214502.626,-48.828,-46.387,-26.367,-48.340,0.000
1621214502.630,-41.992,-45.410,-25.391,-47.363,0.000
1621214502.634,-40.039,-47.363,-19.043,-41.992,0.000
1621214502.638,-37.598,-45.410,-17.578,-58.594,0.000
1621214502.641,-35.645,-41.992,-18.066,-59.082,0.000
1621214502.645,-33.203,-44.922,-18.555,-41.992,0.000
1621214502.649,-35.156,-38.086,-17.090,-37.109,0.000
1621214502.653,-43.457,-31.738,-15.625,-34.668,0.000
1621214502.657,-32.715,-43.457,-17.090,-36.621,0.000
1621214502.661,-22.949,-48.828,-20.020,-31.250,0.000
1621214502.665,-40.039,-37.598,-18.555,-27.832,0.000
1621214502.669,-37.598,-36.133,-20.020,-29.297,0.000
1621214502.673,-16.113,-36.133,-19.531,-25.391,0.000
1621214502.677,-8.789,-41.016,-27.344,-30.762,0.000
1621214502.681,-4.883,-50.293,-24.902,-21.484,0.000
1621214502.684,-20.508,-43.945,-11.719,-14.160,0.000
1621214502.688,-23.438,-36.133,-13.184,-13.672,0.000
1621214502.692,1.953,-34.668,-13.672,-12.695,0.000
1621214502.696,-17.578,-31.250,-16.602,-15.625,0.000
1621214502.700,-32.715,-36.133,-22.461,-17.090,0.000
1621214502.704,-3.418,-40.039,-22.461,-30.762,0.000
1621214502.708,-5.859,-37.109,-25.391,-42.480,0.000
1621214502.712,-15.625,-38.086,-20.996,-41.016,0.000
1621214502.716,-16.602,-38.086,-20.508,-36.133,0.000
1621214502.720,-15.625,-35.645,-20.508,-26.367,0.000
1621214502.724,-17.090,-36.621,-22.949,-23.438,0.000
1621214502.727,-22.461,-39.062,-27.344,-32.715,0.000
1621214502.731,-11.230,-41.504,-23.926,-30.762,0.000
1621214502.735,-13.672,-39.062,-20.508,-27.344,0.000
1621214502.739,-37.109,-32.227,-13.672,-35.156,0.000
1621214502.743,-50.781,-28.809,-14.648,-41.992,0.000
1621214502.747,-44.434,-26.367,-19.531,-39.551,0.000
1621214502.751,-26.855,-27.832,-14.160,-37.598,0.000
1621214502.755,-37.598,-30.273,-12.207,-39.551,0.000
1621214502.759,-47.852,-32.715,-8.789,-39.551,0.000
1621214502.763,-22.461,-35.645,-9.766,-33.691,0.000
1621214502.767,-19.531,-36.621,-14.648,-27.832,0.000
1621214502.770,-26.855,-36.621,-15.137,-28.809,0.000
1621214502.774,-22.949,-24.902,-18.066,-20.508,0.000
1621214502.778,-21.973,-23.926,-20.996,-11.719,0.000
1621214502.782,-6.348,-33.691,-20.020,-15.137,0.000
1621214502.786,-11.719,-29.785,-25.391,-25.391,0.000
1621214502.790,-38.574,-26.367,-29.785,-26.367,0.000
1621214502.794,-41.992,-34.180,-23.926,-26.855,0.000
1621214502.798,-20.996,-36.621,-17.090,-20.020,0.000
1621214502.802,0.977,-32.227,-12.695,-9.277,0.000
1621214502.806,-10.742,-31.250,-11.230,-10.254,0.000
1621214502.810,-24.414,-37.598,-8.789,-3.418,0.000
1621214502.813,0.977,-36.133,-8.789,-7.812,0.000
1621214502.817,-9.766,-35.645,-13.184,-16.113,0.000
1621214502.821,-11.230,-41.504,-13.184,-14.160,0.000
1621214502.825,-13.672,-37.598,-14.160,-18.066,0.000
1621214502.829,-32.227,-37.109,-14.648,-22.461,0.000
1621214502.833,-17.578,-37.109,-17.090,-25.879,0.000
1621214502.837,-33.203,-38.574,-16.602,-31.250,0.000
1621214502.841,-59.570,-39.551,-10.254,-40.039,0.000
1621214502.845,-37.109,-39.062,-12.695,-43.945,0.000
1621214502.849,-24.414,-43.945,-11.230,-35.645,0.000
1621214502.853,-34.180,-41.504,-10.742,-27.832,0.000
1621214502.856,-36.133,-33.691,-11.230,-33.691,0.000
1621214502.860,-41.992,-34.180,-13.672,-42.480,0.000
1621214502.864,-36.133,-40.039,-15.625,-41.504,0.000
1621214502.868,-28.320,-40.527,-13.184,-31.250,0.000
1621214502.872,-38.086,-36.133,-13.672,-27.832,0.000
1621214502.876,-32.715,-37.598,-12.207,-33.691,0.000
1621214502.880,-14.648,-39.551,-13.672,-31.250,0.000
1621214502.884,-7.812,-32.227,-16.113,-20.996,0.000
1621214502.887,-16.113,-33.203,-15.137,-16.602,0.000
1621214502.892,-19.531,-40.039,-17.090,-22.461,0.000
1621214502.896,-24.414,-36.621,-15.625,-17.578,0.000
1621214502.899,-36.621,-32.715,-15.625,-8.789,0.000
1621214502.903,-18.066,-31.250,-18.555,-7.324,0.000
1621214502.907,-19.043,-31.250,-13.184,-20.508,0.000
1621214502.911,-13.672,-40.039,-11.719,-21.484,0.000
1621214502.915,-6.836,-48.340,-14.648,-3.418,0.000
1621214502.919,-20.508,-41.504,-14.648,-2.441,0.000
1621214502.923,-24.902,-36.133,-12.695,-19.043,0.000
1621214502.927,-26.367,-37.598,-11.230,-22.949,0.000
1621214502.930,-28.809,-39.062,-12.207,-18.066,0.000
1621214502.934,-38.086,-41.992,-15.625,-23.926,0.000
1621214502.939,-42.480,-44.922,-14.160,-37.109,0.000
1621214502.942,-35.156,-36.621,-10.742,-39.062,0.000
1621214502.946,-29.785,-33.203,-17.090,-36.621,0.000
1621214502.950,-30.762,-39.062,-21.973,-41.016,0.000
1621214502.954,-58.105,-40.527,-25.391,-49.805,0.000
1621214502.958,-52.246,-44.434,-31.738,-43.945,0.000
