timestamps,TP9,AF7,AF8,TP10,Right AUX
1621214929.773,-9.277,-18.066,-32.715,-16.113,0.000
1621214929.777,-16.113,-27.832,-46.387,-20.996,0.000
1621214929.781,-18.555,-25.879,-50.781,-25.391,0.000
1621214929.785,-20.996,-22.949,-41.504,-19.531,0.000
1621214929.789,-20.508,-29.785,-30.273,-14.160,0.000
1621214929.793,-21.484,-27.832,-26.367,-13.672,0.000
1621214929.797,-21.484,-27.344,-30.762,-19.531,0.000
1621214929.801,-22.461,-29.785,-33.203,-18.555,0.000
1621214929.804,-25.879,-31.250,-37.109,-22.949,0.000
1621214929.808,-22.461,-31.250,-41.992,-27.344,0.000
1621214929.812,-24.902,-31.250,-45.898,-29.785,0.000
1621214929.816,-28.809,-29.785,-39.551,-34.180,0.000
1621214929.820,-26.367,-31.738,-30.762,-23.926,0.000
1621214929.824,-30.273,-31.738,-42.969,-22.461,0.000
1621214929.828,-34.668,-25.879,-51.758,-36.133,0.000
1621214929.832,-32.715,-24.902,-42.480,-37.598,0.000
1621214929.836,-27.344,-30.273,-37.598,-20.020,0.000
1621214929.840,-21.484,-30.762,-36.133,-10.254,0.000
1621214929.844,-18.555,-30.273,-40.039,-21.973,0.000
1621214929.847,-18.555,-29.785,-41.504,-37.109,0.000
1621214929.851,-17.578,-28.320,-38.574,-30.762,0.000
1621214929.855,-21.484,-33.691,-44.922,-30.273,0.000
1621214929.859,-27.344,-35.156,-49.316,-32.227,0.000
1621214929.863,-20.508,-31.250,-41.504,-28.320,0.000
1621214929.867,-16.113,-28.320,-31.738,-30.273,0.000
1621214929.871,-18.066,-25.391,-46.875,-33.691,0.000
1621214929.875,-23.438,-28.320,-53.223,-40.039,0.000
1621214929.879,-32.227,-27.344,-37.598,-38.086,0.000
1621214929.883,-31.738,-25.879,-33.203,-30.273,0.000
1621214929.887,-30.762,-26.855,-39.062,-29.297,0.000
1621214929.890,-24.414,-24.414,-42.969,-22.949,0.000
1621214929.894,-14.648,-27.344,-35.156,-18.555,0.000
1621214929.898,-9.277,-30.273,-39.551,-14.160,0.000
1621214929.902,-12.207,-27.344,-44.922,2.441,0.000
1621214929.906,-23.438,-22.461,-41.992,-9.277,0.000
1621214929.910,-25.879,-25.879,-48.828,-23.438,0.000
1621214929.914,-21.484,-26.367,-41.992,-20.996,0.000
1621214929.918,-16.113,-16.602,-31.738,-17.090,0.000
1621214929.922,-16.113,-19.531,-39.062,-13.672,0.000
1621214929.926,-16.113,-29.297,-44.434,-17.578,0.000
1621214929.929,-13.672,-32.715,-41.504,-22.461,0.000
1621214929.933,-21.484,-32.227,-37.109,-22.461,0.000
1621214929.937,-35.156,-30.762,-39.551,-21.484,0.000
1621214929.941,-35.645,-31.738,-34.668,-25.391,0.000
1621214929.945,-31.250,-34.668,-30.273,-27.832,0.000
1621214929.949,-32.715,-35.156,-46.875,-29.297,0.000
1621214929.953,-33.691,-32.227,-46.875,-30.273,0.000
1621214929.957,-26.855,-26.367,-37.598,-31.738,0.000
1621214929.961,-22.949,-24.902,-41.992,-30.273,0.000
1621214929.965,-22.461,-28.320,-45.410,-32.715,0.000
1621214929.969,-26.367,-29.785,-39.062,-35.645,0.000
1621214929.972,-39.062,-32.715,-24.414,-34.668,0.000
1621214929.976,-37.598,-37.598,-21.484,-37.109,0.000
1621214929.980,-33.203,-36.621,-36.621,-38.574,0.000
1621214929.984,-37.109,-33.691,-41.016,-36.621,0.000
1621214929.988,-41.504,-38.574,-37.598,-32.715,0.000
1621214929.992,-40.039,-44.922,-36.133,-29.297,0.000
1621214929.996,-40.039,-41.016,-40.039,-30.762,0.000
1621214930.000,-40.039,-33.691,-47.363,-30.762,0.000
1621214930.004,-41.992,-36.133,-50.293,-31.250,0.000
1621214930.008,-42.480,-36.133,-51.758,-31.738,0.000
1621214930.012,-29.785,-32.715,-44.922,-43.945,0.000
1621214930.015,-30.762,-39.551,-31.250,-48.340,0.000
1621214930.019,-43.945,-41.992,-34.668,-36.621,0.000
1621214930.023,-39.062,-36.133,-41.016,-30.762,0.000
1621214930.027,-28.809,-34.180,-38.574,-27.344,0.000
1621214930.031,-29.297,-29.785,-35.645,-20.996,0.000
1621214930.035,-34.180,-24.902,-34.180,-11.719,0.000
1621214930.039,-26.855,-27.344,-33.691,-15.137,0.000
1621214930.043,-14.648,-29.297,-33.203,-17.090,0.000
1621214930.047,-16.113,-38.574,-46.875,-16.602,0.000
1621214930.051,-16.602,-41.016,-40.527,-11.719,0.000
1621214930.054,-10.254,-29.297,-31.738,-6.836,0.000
1621214930.058,-10.742,-30.273,-31.738,-22.949,0.000
1621214930.062,-16.602,-33.203,-29.297,-26.855,0.000
1621214930.066,-21.973,-31.738,-35.156,-15.137,0.000
1621214930.070,-17.090,-32.715,-32.227,-10.254,0.000
1621214930.074,-4.883,-28.320,-30.273,-9.277,0.000
1621214930.078,-10.742,-31.250,-37.598,-6.836,0.000
1621214930.082,-16.113,-32.715,-37.598,-13.184,0.000
1621214930.086,-12.207,-28.809,-24.902,-14.160,0.000
1621214930.090,-5.371,-32.715,-26.855,-10.254,0.000
1621214930.094,-8.301,-37.598,-41.992,-14.160,0.000
1621214930.097,-16.602,-43.457,-36.133,-15.137,0.000
1621214930.101,-18.555,-42.969,-32.715,-9.766,0.000
1621214930.105,-20.020,-35.156,-30.762,-8.301,0.000
1621214930.109,-28.809,-28.809,-30.273,-11.230,0.000
1621214930.113,-28.320,-27.344,-31.250,-18.066,0.000
1621214930.117,-17.090,-25.391,-37.109,-13.672,0.000
1621214930.121,-15.137,-26.855,-37.109,-1.465,0.000
1621214930.125,-26.855,-31.738,-28.809,-7.324,0.000
1621214930.129,-40.527,-37.109,-31.250,-22.461,0.000
1621214930.133,-36.133,-41.504,-31.738,-21.484,0.000
1621214930.136,-28.320,-37.598,-28.809,-16.602,0.000
1621214930.140,-28.809,-36.621,-29.297,-26.855,0.000
1621214930.144,-44.434,-37.109,-38.574,-35.156,0.000
1621214930.148,-55.664,-39.062,-40.527,-29.785,0.000
1621214930.152,-46.387,-44.922,-31.738,-20.996,0.000
1621214930.156,-36.621,-42.969,-25.391,-17.578,0.000
1621214930.160,-34.668,-36.621,-29.297,-22.461,0.000
1621214930.164,-35.645,-35.645,-33.203,-36.133,0.000
1621214930.168,-39.062,-35.645,-26.855,-31.738,0.000
1621214930.172,-34.668,-36.133,-32.227,-23.926,0.000
1621214930.176,-20.508,-36.133,-50.781,-29.297,0.000
1621214930.179,-16.113,-30.762,-50.781,-23.926,0.000
1621214930.183,-31.738,-24.902,-28.320,-10.742,0.000
1621214930.187,-30.273,-27.344,-17.578,-11.230,0.000
1621214930.191,-28.809,-33.203,-42.969,-24.414,0.000
1621214930.195,-37.109,-30.273,-48.828,-36.621,0.000
1621214930.199,-35.156,-30.273,-34.668,-34.668,0.000
1621214930.203,-33.203,-35.645,-39.551,-26.367,0.000
1621214930.207,-32.715,-37.598,-31.250,-22.461,0.000
1621214930.211,-31.738,-40.527,-25.391,-21.973,0.000
1621214930.215,-24.902,-44.922,-32.227,-14.648,0.000
1621214930.219,-17.090,-40.039,-35.645,-5.859,0.000
1621214930.222,-11.230,-33.203,-32.227,-6.836,0.000
1621214930.226,-6.836,-39.062,-23.926,-12.695,0.000
1621214930.230,-2.441,-40.527,-22.949,-5.859,0.000
1621214930.234,-13.672,-38.574,-35.156,-6.348,0.000
1621214930.238,-26.367,-38.574,-34.180,-8.789,0.000
1621214930.242,-26.855,-34.668,-25.879,-9.277,0.000
1621214930.246,-21.484,-29.785,-21.484,-12.695,0.000
1621214930.250,-17.090,-30.762,-17.090,-9.277,0.000
1621214930.254,-22.461,-35.645,-35.156,-15.137,0.000
1621214930.258,-21.484,-37.598,-51.270,-13.672,0.000
1621214930.262,-19.531,-38.574,-40.039,-13.184,0.000
1621214930.265,-19.043,-32.227,-36.621,-20.508,0.000
1621214930.269,-24.414,-24.902,-30.762,-12.207,0.000
1621214930.273,-20.508,-30.762,-26.855,-9.766,0.000
1621214930.277,-25.391,-30.273,-32.715,-21.973,0.000
1621214930.281,-37.109,-23.438,-30.762,-31.250,0.000
1621214930.285,-29.297,-23.926,-33.203,-33.203,0.000
1621214930.289,-22.461,-26.855,-41.504,-31.738,0.000
1621214930.293,-23.438,-28.320,-51.758,-36.133,0.000
1621214930.297,-28.320,-27.344,-48.828,-31.250,0.000
1621214930.301,-26.367,-22.949,-32.227,-13.672,0.000
1621214930.304,-16.602,-23.438,-33.691,-9.277,0.000
1621214930.308,-16.113,-35.645,-44.434,-13.672,0.000
1621214930.312,-20.996,-36.621,-39.062,-26.367,0.000
1621214930.316,-23.926,-30.762,-37.598,-29.785,0.000
1621214930.320,-34.668,-33.691,-35.645,-19.043,0.000
1621214930.324,-35.645,-27.832,-50.781,-32.227,0.000
1621214930.328,-26.367,-23.926,-55.176,-44.434,0.000
1621214930.332,-24.902,-30.273,-39.551,-35.645,0.000
1621214930.336,-32.227,-31.738,-37.598,-28.320,0.000
1621214930.340,-28.809,-32.227,-41.504,-31.738,0.000
1621214930.344,-25.391,-30.273,-46.875,-36.133,0.000
1621214930.347,-19.531,-23.926,-35.645,-27.832,0.000
1621214930.351,-15.625,-26.367,-30.762,-15.625,0.000
1621214930.355,-26.367,-32.227,-40.039,-23.926,0.000
1621214930.359,-36.133,-39.551,-39.062,-31.738,0.000
1621214930.363,-35.156,-43.457,-33.203,-34.180,0.000
1621214930.367,-44.434,-40.039,-30.273,-42.480,0.000
1621214930.371,-64.941,-37.598,-34.180,-52.734,0.000
1621214930.375,-67.383,-37.598,-41.992,-65.430,0.000
1621214930.379,-61.035,-42.969,-45.898,-72.266,0.000
1621214930.383,-71.289,-45.898,-34.668,-70.801,0.000
1621214930.387,-71.777,-41.504,-33.691,-78.613,0.000
1621214930.390,-63.965,-42.480,-45.410,-72.266,0.000
1621214930.394,-74.707,-47.852,-38.574,-76.172,0.000
1621214930.398,-87.402,-49.805,-30.273,-84.961,0.000
1621214930.402,-85.449,-51.758,-29.297,-77.148,0.000
1621214930.406,-83.984,-51.270,-48.340,-64.453,0.000
1621214930.410,-76.660,-48.828,-61.035,-47.363,0.000
1621214930.414,-74.219,-52.246,-37.598,-60.547,0.000
1621214930.418,-72.266,-53.223,-20.020,-67.383,0.000
1621214930.422,-69.824,-56.641,-20.508,-56.152,0.000
1621214930.426,-63.965,-59.082,-16.113,-48.340,0.000
1621214930.429,-61.523,-59.570,-15.625,-43.457,0.000
1621214930.433,-62.988,-61.523,-25.879,-32.715,0.000
1621214930.437,-55.176,-57.129,-26.855,-24.414,0.000
1621214930.441,-37.598,-51.270,-18.555,-31.738,0.000
1621214930.445,-33.691,-50.293,-23.438,-39.062,0.000
1621214930.449,-40.039,-49.805,-35.156,-36.133,0.000
1621214930.453,-29.785,-46.387,-35.156,-21.973,0.000
1621214930.457,-26.367,-44.922,-31.738,-14.648,0.000
1621214930.461,-34.668,-47.852,-35.156,-27.344,0.000
1621214930.465,-31.250,-46.387,-38.574,-31.738,0.000
1621214930.469,-37.109,-48.340,-45.410,-29.297,0.000
1621214930.472,-46.875,-48.828,-41.992,-23.438,0.000
1621214930.476,-37.598,-40.039,-31.738,-14.160,0.000
1621214930.480,-24.902,-40.039,-37.598,-16.113,0.000
1621214930.484,-22.949,-43.945,-42.480,-13.184,0.000
1621214930.488,-21.484,-44.922,-39.551,-12.695,0.000
1621214930.492,-27.832,-41.992,-40.527,-24.902,0.000
1621214930.496,-27.832,-40.527,-34.180,-31.250,0.000
1621214930.500,-19.531,-41.504,-17.090,-19.531,0.000
1621214930.504,-20.020,-36.621,-30.273,-19.043,0.000
1621214930.508,-28.320,-33.691,-50.293,-32.227,0.000
1621214930.511,-24.902,-32.715,-41.992,-25.391,0.000
1621214930.515,-22.949,-29.297,-44.434,-20.020,0.000
1621214930.519,-28.320,-35.156,-53.711,-28.809,0.000
1621214930.523,-23.926,-39.551,-56.641,-29.785,0.000
1621214930.527,-30.762,-32.715,-41.992,-30.762,0.000
1621214930.531,-31.738,-23.926,-29.297,-33.203,0.000
1621214930.535,-10.742,-25.391,-34.180,-21.484,0.000
1621214930.539,-17.578,-33.203,-33.691,-16.602,0.000
1621214930.543,-21.973,-30.273,-31.250,-7.812,0.000
1621214930.547,-19.043,-31.738,-35.645,-6.348,0.000
1621214930.551,-27.344,-32.227,-34.180,-17.090,0.000
1621214930.554,-27.832,-26.855,-36.133,-13.672,0.000
1621214930.558,-25.391,-28.809,-31.250,-16.113,0.000
1621214930.562,-25.879,-32.227,-28.809,-25.879,0.000
1621214930.566,-28.320,-32.715,-28.809,-28.320,0.000
1621214930.570,-29.785,-32.227,-19.043,-23.438,0.000
1621214930.574,-28.809,-33.203,-24.414,-23.438,0.000
1621214930.578,-19.043,-29.785,-56.152,-24.902,0.000
1621214930.582,-24.902,-31.738,-68.359,-18.066,0.000
1621214930.586,-31.738,-39.551,-48.828,-13.184,0.000
1621214930.590,-27.832,-36.133,-27.344,-18.066,0.000
1621214930.594,-32.715,-31.250,-8.789,-16.602,0.000
1621214930.597,-41.992,-34.668,-26.367,-11.230,0.000
1621214930.601,-32.715,-36.621,-52.734,-15.137,0.000
1621214930.605,-20.996,-39.062,-34.668,-21.484,0.000
1621214930.609,-28.809,-37.598,-26.855,-22.461,0.000
1621214930.613,-29.297,-42.969,-32.227,-16.602,0.000
1621214930.617,-23.926,-41.992,-22.949,-9.766,0.000
1621214930.621,-22.461,-34.668,-29.785,-13.672,0.000
1621214930.625,-18.555,-37.109,-39.551,-17.578,0.000
1621214930.629,-22.461,-30.273,-41.504,-20.508,0.000
1621214930.633,-31.250,-25.391,-29.785,-4.883,0.000
1621214930.636,-28.809,-30.762,-21.484,-3.418,0.000
1621214930.640,-20.996,-31.738,-36.621,-13.184,0.000
1621214930.644,-29.297,-30.273,-38.086,-0.488,0.000
1621214930.648,-30.273,-28.320,-30.762,2.441,0.000
1621214930.652,-17.578,-28.320,-35.156,-6.348,0.000
1621214930.656,-47.852,-28.809,-35.156,-14.648,0.000
1621214930.660,-55.664,-25.879,-39.551,-19.043,0.000
1621214930.664,-35.645,-30.273,-53.711,-22.461,0.000
1621214930.668,-42.480,-36.621,-49.805,-27.832,0.000
1621214930.672,-42.480,-38.086,-43.945,-27.344,0.000
1621214930.676,-36.133,-33.691,-35.156,-20.996,0.000
1621214930.679,-34.668,-26.367,-37.598,-24.902,0.000
1621214930.683,-41.016,-23.438,-48.828,-28.809,0.000
1621214930.687,-47.363,-21.973,-45.898,-20.020,0.000
1621214930.691,-46.387,-22.461,-46.875,-20.996,0.000
1621214930.695,-41.992,-25.879,-42.480,-24.414,0.000
1621214930.699,-37.598,-24.414,-41.016,-21.973,0.000
1621214930.703,-34.668,-21.973,-60.547,-21.973,0.000
1621214930.707,-28.809,-23.438,-57.617,-27.832,0.000
1621214930.711,-26.367,-21.973,-35.645,-25.391,0.000
1621214930.715,-32.715,-18.066,-30.762,-28.809,0.000
1621214930.719,-40.527,-26.367,-31.250,-32.715,0.000
1621214930.722,-35.156,-34.180,-34.180,-29.785,0.000
1621214930.726,-27.832,-29.297,-34.668,-27.344,0.000
1621214930.730,-28.809,-23.438,-40.039,-20.996,0.000
1621214930.734,-22.949,-22.461,-46.875,-16.602,0.000
1621214930.738,-20.508,-31.738,-49.805,-16.113,0.000
1621214930.742,-23.926,-38.086,-50.781,-13.672,0.000
1621214930.746,-30.762,-39.062,-49.316,-23.926,0.000
1621214930.750,-32.227,-33.203,-41.504,-25.391,0.000
1621214930.754,-29.785,-28.320,-39.551,-14.160,0.000
1621214930.758,-29.297,-24.414,-43.457,-19.043,0.000
1621214930.761,-32.715,-27.832,-35.156,-28.809,0.000
1621214930.765,-27.344,-25.391,-31.250,-23.926,0.000
1621214930.769,-21.973,-23.438,-34.668,-14.648,0.000
1621214930.773,-31.250,-31.250,-54.199,-19.531,0.000
1621214930.777,-27.344,-32.227,-57.617,-30.273,0.000
1621214930.781,-20.996,-33.691,-41.992,-32.227,0.000
1621214930.785,-23.438,-36.133,-53.711,-30.762,0.000
1621214930.789,-38.574,-31.738,-60.547,-37.109,0.000
1621214930.793,-52.246,-30.762,-47.363,-33.691,0.000
1621214930.797,-49.805,-36.133,-38.574,-25.391,0.000
1621214930.801,-46.387,-33.691,-35.645,-34.668,0.000
1621214930.804,-37.109,-27.344,-39.551,-34.180,0.000
1621214930.808,-36.621,-26.855,-48.340,-32.227,0.000
1621214930.812,-44.434,-25.879,-44.434,-39.062,0.000
1621214930.816,-41.992,-23.438,-45.410,-34.668,0.000
1621214930.820,-44.434,-22.461,-39.551,-34.180,0.000
1621214930.824,-46.387,-22.949,-36.133,-39.062,0.000
1621214930.828,-50.293,-21.484,-45.898,-38.086,0.000
1621214930.832,-54.688,-22.461,-47.363,-34.668,0.000
1621214930.836,-50.293,-23.438,-41.992,-33.691,0.000
1621214930.840,-43.945,-30.762,-37.598,-38.086,0.000
1621214930.843,-41.992,-28.809,-49.316,-45.410,0.000
1621214930.847,-32.715,-21.973,-43.945,-42.480,0.000
1621214930.851,-39.551,-30.762,-44.922,-38.086,0.000
1621214930.855,-48.828,-24.414,-52.246,-34.668,0.000
1621214930.859,-40.039,-19.043,-44.434,-39.551,0.000
1621214930.863,-38.086,-24.414,-51.758,-38.574,0.000
1621214930.867,-41.504,-20.996,-47.363,-25.391,0.000
1621214930.871,-37.598,-20.508,-41.016,-24.902,0.000
1621214930.875,-32.715,-20.508,-37.598,-34.668,0.000
1621214930.879,-38.086,-24.414,-40.039,-38.574,0.000
1621214930.883,-35.156,-29.297,-44.922,-32.715,0.000
1621214930.886,-31.250,-31.738,-51.758,-30.762,0.000
1621214930.890,-35.156,-32.715,-46.387,-31.738,0.000
1621214930.894,-41.016,-34.180,-44.434,-32.227,0.000
1621214930.898,-29.297,-33.203,-42.480,-29.297,0.000
1621214930.902,-20.996,-30.762,-25.879,-23.438,0.000
1621214930.906,-36.133,-31.250,-29.785,-30.273,0.000
1621214930.910,-40.527,-30.762,-31.250,-38.086,0.000
1621214930.914,-31.250,-30.762,-29.785,-38.086,0.000
1621214930.918,-29.785,-28.320,-29.785,-32.715,0.000
1621214930.922,-22.949,-28.809,-26.855,-26.367,0.000
1621214930.926,-24.902,-30.273,-37.598,-26.367,0.000
1621214930.929,-39.062,-36.621,-45.410,-29.785,0.000
1621214930.933,-33.203,-39.062,-37.598,-27.344,0.000
1621214930.937,-32.227,-30.762,-31.738,-18.555,0.000
1621214930.941,-33.691,-26.855,-31.738,-29.785,0.000
1621214930.945,-35.156,-27.832,-37.109,-38.086,0.000
1621214930.949,-31.738,-22.949,-35.156,-30.273,0.000
1621214930.953,-23.438,-27.832,-30.273,-28.320,0.000
1621214930.957,-25.879,-38.086,-27.832,-31.738,0.000
1621214930.961,-27.344,-35.156,-27.344,-28.320,0.000
1621214930.965,-28.809,-28.320,-30.273,-20.996,0.000
1621214930.969,-32.715,-27.344,-33.691,-26.855,0.000
1621214930.972,-43.457,-32.715,-37.109,-30.273,0.000
1621214930.976,-35.156,-33.203,-27.344,-26.855,0.000
1621214930.980,-27.832,-31.738,-27.832,-29.785,0.000
1621214930.984,-36.621,-32.715,-39.551,-36.621,0.000
1621214930.988,-41.016,-30.762,-37.598,-26.367,0.000
1621214930.992,-40.039,-33.203,-40.039,-16.602,0.000
1621214930.996,-36.133,-34.180,-36.621,-19.043,0.000
1621214931.000,-36.133,-32.227,-38.086,-23.926,0.000
1621214931.004,-36.133,-32.227,-44.434,-20.020,0.000
1621214931.008,-24.902,-30.762,-39.551,-16.113,0.000
1621214931.011,-23.926,-32.227,-39.551,-19.043,0.000
1621214931.015,-27.344,-31.738,-37.109,-27.344,0.000
1621214931.019,-17.090,-22.461,-27.832,-26.367,0.000
1621214931.023,-21.484,-18.066,-37.109,-17.090,0.000
1621214931.027,-30.273,-19.531,-42.480,-18.555,0.000
1621214931.031,-29.297,-20.020,-31.738,-25.879,0.000
1621214931.035,-20.996,-22.949,-38.086,-19.531,0.000
1621214931.039,-19.531,-25.391,-48.340,-16.602,0.000
1621214931.043,-12.207,-21.973,-39.062,-31.250,0.000
1621214931.047,-15.625,-24.414,-43.457,-47.363,0.000
1621214931.051,-33.691,-27.344,-44.434,-41.992,0.000
1621214931.054,-31.738,-25.879,-40.527,-37.598,0.000
1621214931.058,-26.367,-22.949,-39.062,-43.457,0.000
1621214931.062,-32.227,-19.531,-32.227,-47.363,0.000
1621214931.066,-36.133,-25.879,-35.156,-50.293,0.000
1621214931.070,-32.715,-30.762,-42.969,-40.039,0.000
1621214931.074,-34.180,-25.879,-38.574,-39.551,0.000
1621214931.078,-37.109,-28.809,-33.691,-51.758,0.000
1621214931.082,-37.109,-34.180,-43.457,-43.457,0.000
1621214931.086,-34.180,-33.691,-44.434,-25.879,0.000
1621214931.090,-31.738,-33.691,-39.062,-23.438,0.000
1621214931.094,-27.832,-31.738,-42.480,-29.297,0.000
1621214931.097,-30.762,-29.297,-44.922,-35.645,0.000
1621214931.101,-36.133,-30.762,-39.062,-27.344,0.000
1621214931.105,-28.320,-29.297,-40.039,-15.137,0.000
1621214931.109,-25.391,-28.320,-46.875,-18.555,0.000
1621214931.113,-30.273,-32.715,-44.922,-18.555,0.000
1621214931.117,-21.973,-29.785,-42.969,-24.902,0.000
1621214931.121,-25.391,-32.715,-40.527,-28.809,0.000
1621214931.125,-30.762,-31.738,-47.852,-29.785,0.000
1621214931.129,-19.531,-25.391,-58.105,-25.879,0.000
1621214931.133,-21.973,-25.391,-40.527,-27.344,0.000
1621214931.136,-23.926,-25.391,-32.715,-33.691,0.000
1621214931.140,-21.484,-30.762,-41.992,-28.320,0.000
1621214931.144,-18.555,-26.367,-37.598,-31.250,0.000
1621214931.148,-11.719,-20.020,-25.879,-27.344,0.000
1621214931.152,-15.137,-20.508,-30.762,-16.602,0.000
1621214931.156,-17.578,-21.484,-29.785,-24.902,0.000
1621214931.160,-15.137,-26.367,-29.297,-31.250,0.000
1621214931.164,-20.020,-24.902,-43.457,-31.738,0.000
1621214931.168,-25.391,-24.414,-31.738,-30.273,0.000
1621214931.172,-19.531,-30.273,-35.156,-20.508,0.000
1621214931.176,-35.156,-28.320,-44.922,-36.133,0.000
1621214931.179,-53.711,-24.414,-51.270,-48.340,0.000
1621214931.183,-40.039,-33.203,-47.363,-33.691,0.000
1621214931.187,-24.414,-39.062,-35.156,-13.184,0.000
1621214931.191,-31.250,-34.668,-32.227,-19.531,0.000
1621214931.195,-36.133,-35.156,-38.086,-24.414,0.000
1621214931.199,-26.855,-35.156,-44.922,-3.906,0.000
1621214931.203,-11.719,-32.227,-30.762,-2.930,0.000
1621214931.207,6.836,-30.762,-40.527,-14.160,0.000
1621214931.211,-20.508,-30.762,-65.918,-39.062,0.000
1621214931.215,-26.367,-32.715,-47.852,-49.316,0.000
1621214931.218,-22.949,-35.156,-32.715,-12.207,0.000
1621214931.222,-35.645,-37.598,-41.016,-1.465,0.000
1621214931.226,-18.066,-38.086,-23.926,-10.254,0.000
1621214931.230,-19.531,-41.016,-13.672,2.930,0.000
1621214931.234,-21.484,-44.922,-21.484,-11.719,0.000
1621214931.238,-7.812,-51.758,-9.766,-15.625,0.000
1621214931.242,-16.113,-63.477,-20.508,18.555,0.000
1621214931.246,-19.043,-65.430,-28.320,1.465,0.000
1621214931.250,-10.742,-63.965,-11.719,-10.742,0.000
1621214931.254,-8.301,-66.406,-1.953,19.043,0.000
1621214931.258,-0.488,-66.895,2.930,40.039,0.000
1621214931.261,-11.230,-66.406,2.930,17.578,0.000
1621214931.265,-1.953,-68.359,-2.441,32.227,0.000
1621214931.269,8.789,-64.941,-1.465,66.406,0.000
1621214931.273,1.465,-62.500,-16.602,29.785,0.000
1621214931.277,1.953,-59.082,-30.762,11.719,0.000
1621214931.281,1.465,-57.617,-22.461,16.113,0.000
1621214931.285,4.883,-51.758,-11.719,20.508,0.000
1621214931.289,-3.906,-53.711,-15.137,19.043,0.000
1621214931.293,-13.672,-59.570,-23.926,-6.836,0.000
1621214931.297,-19.043,-55.176,-21.484,-12.695,0.000
1621214931.301,-32.715,-52.246,-20.020,-6.348,0.000
1621214931.304,-22.949,-51.270,-26.855,-1.953,0.000
1621214931.308,-13.672,-48.828,-26.855,-7.324,0.000
1621214931.312,-22.949,-41.992,-17.090,-11.230,0.000
1621214931.316,-19.531,-37.109,-15.137,-1.953,0.000
1621214931.320,-12.207,-38.574,-34.180,1.953,0.000
1621214931.324,2.930,-37.598,-37.109,12.207,0.000
1621214931.328,1.953,-38.086,-24.902,1.465,0.000
1621214931.332,-16.113,-39.062,-39.062,-9.277,0.000
1621214931.336,-18.555,-35.645,-38.574,1.465,0.000
1621214931.340,-12.207,-35.645,-27.344,-2.930,0.000
1621214931.343,-21.484,-37.109,-28.320,-28.809,0.000
1621214931.347,-30.273,-37.598,-29.297,-26.855,0.000
1621214931.351,-22.949,-35.156,-32.227,-22.461,0.000
1621214931.355,-39.551,-39.062,-37.109,-17.578,0.000
1621214931.359,-54.688,-37.598,-31.250,-24.414,0.000
1621214931.363,-34.180,-31.738,-32.715,-37.598,0.000
1621214931.367,-25.391,-33.203,-41.992,-28.320,0.000
1621214931.371,-26.367,-35.645,-37.109,-36.133,0.000
1621214931.375,-31.738,-37.109,-36.133,-42.969,0.000
1621214931.379,-31.738,-40.527,-36.133,-20.508,0.000
1621214931.383,-44.922,-40.039,-30.273,-31.738,0.000
1621214931.386,-45.898,-36.621,-39.551,-49.316,0.000
1621214931.390,-38.574,-37.598,-49.805,-49.805,0.000
1621214931.394,-40.527,-34.668,-42.969,-31.738,0.000
1621214931.398,-41.016,-27.832,-39.062,-27.832,0.000
1621214931.402,-33.691,-32.227,-34.180,-36.133,0.000
1621214931.406,-27.832,-33.691,-32.227,-25.391,0.000
1621214931.410,-32.227,-28.809,-50.293,-40.039,0.000
1621214931.414,-35.645,-38.086,-56.641,-34.668,0.000
1621214931.418,-26.367,-41.992,-45.898,-22.949,0.000
1621214931.422,-34.180,-34.180,-37.598,-31.738,0.000
1621214931.426,-41.504,-31.738,-34.668,-40.039,0.000
1621214931.429,-39.062,-33.691,-36.621,-60.059,0.000
1621214931.433,-32.715,-38.574,-44.922,-56.641,0.000
1621214931.437,-13.672,-42.969,-47.852,-42.480,0.000
1621214931.441,-22.949,-41.504,-37.598,-37.109,0.000
1621214931.445,-35.645,-43.945,-35.156,-36.621,0.000
1621214931.449,-29.297,-45.898,-40.527,-30.273,0.000
1621214931.453,-22.461,-38.574,-50.293,-20.020,0.000
1621214931.457,-23.438,-33.691,-68.359,-15.625,0.000
1621214931.461,-38.574,-30.273,-58.594,-30.273,0.000
1621214931.465,-45.410,-30.762,-39.062,-31.738,0.000
1621214931.468,-34.180,-38.086,-42.480,-19.531,0.000
1621214931.472,-35.156,-41.504,-37.109,-32.227,0.000
1621214931.476,-37.109,-36.621,-38.574,-55.664,0.000
1621214931.480,-33.691,-29.785,-55.176,-59.570,0.000
1621214931.484,-50.781,-26.855,-50.293,-47.363,0.000
1621214931.488,-64.453,-32.227,-45.410,-40.527,0.000
1621214931.492,-40.039,-31.738,-38.574,-51.270,0.000
1621214931.496,-49.805,-32.227,-22.461,-48.340,0.000
1621214931.500,-44.922,-32.227,-46.875,-39.551,0.000
1621214931.504,-34.180,-26.367,-61.523,-47.363,0.000
1621214931.508,-41.992,-30.762,-36.621,-57.617,0.000
1621214931.511,-53.711,-39.062,-35.645,-71.777,0.000
1621214931.515,-60.547,-36.621,-43.945,-71.777,0.000
1621214931.519,-51.270,-31.738,-44.922,-50.781,0.000
1621214931.523,-27.832,-31.250,-43.945,-39.551,0.000
1621214931.527,-12.695,-33.691,-40.039,-46.875,0.000
1621214931.531,-44.922,-38.574,-40.527,-61.035,0.000
1621214931.535,-34.668,-44.922,-42.969,-43.945,0.000
1621214931.539,-32.227,-41.992,-47.852,-40.039,0.000
1621214931.543,-59.570,-45.898,-41.016,-60.059,0.000
1621214931.547,-47.852,-52.734,-37.598,-55.176,0.000
1621214931.550,-33.691,-52.734,-41.016,-45.898,0.000
1621214931.554,-45.410,-47.363,-43.945,-33.203,0.000
1621214931.558,-45.410,-43.457,-41.992,-46.387,0.000
1621214931.562,-35.156,-45.898,-32.227,-50.293,0.000
1621214931.566,-38.574,-40.039,-32.227,-38.574,0.000
1621214931.570,-45.410,-34.668,-33.203,-15.625,0.000
1621214931.574,-54.199,-38.086,-33.203,-11.719,0.000
1621214931.578,-28.809,-37.598,-36.133,-21.973,0.000
1621214931.582,-31.738,-33.203,-34.180,-14.160,0.000
1621214931.586,-40.039,-35.156,-30.762,-6.836,0.000
1621214931.590,-12.695,-41.016,-33.691,-14.648,0.000
1621214931.593,-31.738,-40.039,-35.156,-19.043,0.000
1621214931.597,-18.555,-32.227,-32.715,-33.691,0.000
1621214931.601,-3.418,-27.832,-40.527,-24.902,0.000
1621214931.605,-39.551,-29.785,-45.898,-12.695,0.000
1621214931.609,-50.781,-34.668,-38.086,-46.387,0.000
1621214931.613,-34.180,-39.062,-42.480,-53.223,0.000
1621214931.617,-37.598,-35.645,-47.363,-42.969,0.000
1621214931.621,-41.016,-33.691,-41.504,-44.434,0.000
1621214931.625,-42.480,-36.133,-41.504,-33.203,0.000
1621214931.629,-37.598,-33.691,-35.156,-39.551,0.000
1621214931.633,-25.879,-27.344,-22.461,-40.527,0.000
1621214931.636,-28.320,-25.391,-23.438,-21.973,0.000
1621214931.640,-33.203,-27.832,-33.203,-21.484,0.000
1621214931.644,-27.344,-29.785,-34.180,-45.410,0.000
1621214931.648,-35.645,-28.809,-24.414,-51.758,0.000
1621214931.652,-33.203,-27.344,-23.438,-41.504,0.000
1621214931.656,-20.508,-25.391,-37.598,-43.457,0.000
1621214931.660,-20.996,-24.414,-42.969,-41.504,0.000
1621214931.664,-18.555,-24.414,-30.762,-41.504,0.000
1621214931.668,-22.461,-27.832,-37.598,-43.457,0.000
1621214931.672,-20.020,-25.391,-40.527,-39.062,0.000
1621214931.676,-24.414,-28.809,-33.691,-39.062,0.000
1621214931.679,-35.156,-29.785,-40.527,-33.691,0.000
1621214931.683,-31.250,-22.949,-45.898,-28.809,0.000
1621214931.687,-29.297,-24.902,-42.969,-38.086,0.000
1621214931.691,-19.043,-23.926,-29.785,-45.410,0.000
1621214931.695,-8.301,-24.902,-35.645,-40.527,0.000
1621214931.699,-20.996,-32.715,-57.617,-35.156,0.000
1621214931.703,-17.578,-25.879,-37.109,-17.578,0.000
1621214931.707,-14.648,-23.926,-29.297,-15.137,0.000
1621214931.711,-19.531,-29.297,-50.293,-28.809,0.000
1621214931.715,-14.160,-26.855,-54.688,-24.902,0.000
1621214931.718,-17.578,-24.902,-40.039,-27.344,0.000
1621214931.722,-21.484,-20.996,-26.855,-12.207,0.000
1621214931.726,-8.789,-16.113,-28.809,-0.977,0.000
1621214931.730,-13.672,-15.625,-28.320,-9.766,0.000
1621214931.734,-28.809,-19.043,-35.645,-13.184,0.000
1621214931.738,-14.160,-21.973,-44.434,-22.949,0.000
1621214931.742,-4.395,-20.996,-37.109,-20.020,0.000
1621214931.746,-8.789,-22.461,-35.645,-18.066,0.000
1621214931.750,-3.418,-24.902,-50.781,-18.555,0.000
1621214931.754,-17.090,-31.250,-58.594,-12.695,0.000
1621214931.758,-25.391,-32.715,-39.062,-16.113,0.000
1621214931.761,-9.277,-28.809,-18.066,-22.949,0.000
1621214931.765,-18.066,-26.855,-20.508,-29.785,0.000
1621214931.769,-23.926,-27.832,-30.273,-25.391,0.000
1621214931.773,-18.066,-30.762,-26.367,-13.184,0.000
1621214931.777,-20.020,-33.691,-23.438,-17.090,0.000
1621214931.781,-25.879,-32.227,-39.062,-31.250,0.000
1621214931.785,-40.039,-24.414,-49.805,-37.109,0.000
1621214931.789,-40.527,-19.043,-38.574,-30.273,0.000
1621214931.793,-43.457,-20.996,-40.039,-30.762,0.000
1621214931.797,-39.551,-27.344,-51.758,-30.273,0.000
1621214931.801,-29.297,-27.832,-46.387,-26.855,0.000
1621214931.804,-32.227,-29.297,-39.551,-30.273,0.000
1621214931.808,-29.785,-30.273,-32.715,-24.902,0.000
1621214931.812,-23.438,-28.809,-29.785,-27.832,0.000
1621214931.816,-15.137,-25.879,-29.785,-28.809,0.000
1621214931.820,-19.531,-26.855,-41.992,-28.320,0.000
1621214931.824,-21.484,-29.297,-44.922,-16.113,0.000
1621214931.828,-21.973,-33.203,-35.645,-16.602,0.000
1621214931.832,-38.574,-40.039,-39.551,-28.809,0.000
1621214931.836,-33.691,-36.133,-35.645,-31.738,0.000
1621214931.840,-10.254,-29.785,-38.574,-37.109,0.000
1621214931.843,-14.160,-32.715,-56.152,-28.809,0.000
1621214931.847,-15.137,-29.297,-47.852,-4.395,0.000
1621214931.851,-4.883,-29.297,-28.809,1.465,0.000
1621214931.855,-4.883,-30.762,-32.715,-13.672,0.000
1621214931.859,0.000,-26.855,-40.527,-20.996,0.000
1621214931.863,-9.277,-33.203,-42.480,-19.531,0.000
1621214931.867,-4.883,-33.691,-37.598,-14.648,0.000
1621214931.871,8.789,-23.438,-28.320,-13.672,0.000
1621214931.875,-1.465,-19.531,-32.227,-18.066,0.000
1621214931.879,-1.953,-16.602,-32.227,-15.137,0.000
1621214931.883,7.324,-14.160,-24.414,-9.766,0.000
1621214931.886,-3.906,-21.973,-30.273,-8.301,0.000
1621214931.890,-5.371,-26.855,-35.156,-9.277,0.000
1621214931.894,-8.789,-28.809,-19.043,-16.113,0.000
1621214931.898,-7.812,-30.273,-20.508,-15.625,0.000
1621214931.902,-1.465,-28.809,-36.133,-12.695,0.000
1621214931.906,-22.949,-33.691,-42.480,-15.625,0.000
1621214931.910,-31.250,-36.621,-37.598,-14.648,0.000
1621214931.914,-35.156,-31.738,-24.902,-21.973,0.000
1621214931.918,-31.250,-26.367,-25.879,-23.438,0.000
1621214931.922,-13.672,-25.879,-32.715,-18.066,0.000
1621214931.925,-22.949,-33.203,-24.414,-22.949,0.000
1621214931.929,-32.715,-36.133,-21.973,-26.855,0.000
1621214931.933,-17.090,-23.926,-40.039,-31.250,0.000
1621214931.937,-34.180,-26.367,-53.223,-29.785,0.000
1621214931.941,-43.945,-33.691,-37.109,-15.625,0.000
1621214931.945,-23.926,-21.973,-22.949,-26.367,0.000
1621214931.949,-11.230,-18.555,-40.039,-33.203,0.000
1621214931.953,-15.625,-31.250,-50.293,-20.508,0.000
1621214931.957,-41.016,-38.574,-39.062,-31.250,0.000
1621214931.961,-38.574,-34.668,-36.621,-47.363,0.000
1621214931.965,-20.508,-24.902,-41.992,-35.156,0.000
1621214931.968,-9.766,-20.508,-31.250,-25.879,0.000
1621214931.972,-6.348,-22.949,-25.879,-30.762,0.000
1621214931.976,-6.836,-25.391,-27.344,-27.344,0.000
1621214931.980,-12.695,-26.367,-30.273,-25.391,0.000
1621214931.984,-18.066,-25.879,-40.527,-20.508,0.000
1621214931.988,-20.508,-24.414,-33.691,-21.973,0.000
1621214931.992,-20.020,-27.344,-31.738,-26.855,0.000
1621214931.996,-29.785,-32.715,-45.410,-20.996,0.000
1621214932.000,-34.180,-32.715,-49.805,-15.625,0.000
1621214932.004,-21.484,-31.250,-42.480,-17.090,0.000
1621214932.008,-7.812,-27.344,-35.645,-7.812,0.000
1621214932.011,-8.789,-26.855,-33.691,-7.324,0.000
1621214932.015,-25.879,-32.715,-31.250,-20.996,0.000
1621214932.019,-23.438,-32.227,-27.832,-20.996,0.000
1621214932.023,-16.113,-28.320,-28.809,-8.789,0.000
1621214932.027,-11.719,-28.809,-36.133,-13.672,0.000
1621214932.031,-10.254,-22.461,-37.109,-20.996,0.000
1621214932.035,-11.719,-18.555,-29.297,-7.324,0.000
1621214932.039,-6.836,-24.414,-35.645,-9.766,0.000
1621214932.043,-28.320,-26.367,-40.039,-10.742,0.000
1621214932.047,-29.785,-22.949,-22.461,-0.977,0.000
1621214932.050,5.859,-18.555,-20.020,-7.812,0.000
1621214932.054,8.789,-20.508,-30.273,-14.648,0.000
1621214932.058,8.789,-17.090,-34.668,-13.184,0.000
1621214932.062,-15.625,-16.602,-37.109,-23.438,0.000
1621214932.066,-31.738,-25.391,-24.902,-21.484,0.000
1621214932.070,-12.207,-26.367,-23.926,-13.672,0.000
1621214932.074,-10.742,-22.949,-35.645,-15.137,0.000
1621214932.078,-19.531,-25.879,-38.574,-11.230,0.000
1621214932.082,-21.484,-32.715,-33.203,-1.953,0.000
1621214932.086,-27.344,-36.133,-26.855,-8.301,0.000
1621214932.090,-25.391,-33.203,-32.227,-13.672,0.000
1621214932.093,-19.043,-27.832,-42.480,-19.043,0.000
1621214932.097,-23.438,-29.785,-39.062,-28.320,0.000
1621214932.101,-22.949,-34.668,-41.016,-13.184,0.000
1621214932.105,-21.973,-31.738,-42.969,-14.160,0.000
1621214932.109,-28.809,-31.250,-39.551,-27.344,0.000
1621214932.113,-28.809,-35.645,-38.574,-31.738,0.000
1621214932.117,-25.879,-36.133,-34.180,-29.785,0.000
1621214932.121,-16.602,-34.180,-32.227,-21.484,0.000
1621214932.125,-5.371,-32.227,-44.922,-14.160,0.000
1621214932.129,-9.766,-37.109,-45.410,-16.113,0.000
1621214932.133,-19.531,-36.133,-37.109,-25.391,0.000
1621214932.136,-3.906,-28.809,-39.551,-22.461,0.000
1621214932.140,-1.953,-29.785,-42.480,-21.973,0.000
1621214932.144,-24.414,-39.062,-34.668,-29.785,0.000
1621214932.148,-25.879,-40.039,-39.062,-29.297,0.000
1621214932.152,-23.926,-37.598,-49.805,-17.090,0.000
1621214932.156,-30.273,-39.551,-44.922,-19.531,0.000
1621214932.160,-29.785,-38.086,-37.598,-26.855,0.000
1621214932.164,-37.109,-30.762,-34.180,-28.809,0.000
1621214932.168,-39.551,-34.180,-33.691,-32.227,0.000
1621214932.172,-29.785,-37.109,-31.250,-31.250,0.000
1621214932.176,-28.320,-34.180,-28.320,-17.578,0.000
1621214932.179,-31.250,-34.180,-33.691,-14.648,0.000
1621214932.183,-20.020,-34.668,-41.992,-17.578,0.000
1621214932.187,-13.184,-37.109,-43.945,-13.672,0.000
1621214932.191,-32.227,-39.062,-39.551,-10.742,0.000
1621214932.195,-38.086,-32.715,-34.180,-11.230,0.000
1621214932.199,-27.832,-25.391,-28.809,-16.602,0.000
1621214932.203,-21.973,-27.832,-38.574,-15.137,0.000
1621214932.207,-16.113,-29.785,-53.223,-12.695,0.000
1621214932.211,-17.578,-30.762,-48.828,-17.090,0.000
1621214932.215,-23.926,-34.180,-34.668,-12.207,0.000
1621214932.218,-22.949,-34.180,-23.438,-12.207,0.000
1621214932.222,-29.785,-34.668,-27.344,-18.066,0.000
1621214932.226,-35.645,-33.691,-35.156,-29.297,0.000
1621214932.230,-38.086,-30.273,-33.203,-41.016,0.000
1621214932.234,-36.133,-26.855,-36.133,-33.691,0.000
1621214932.238,-27.344,-23.926,-38.574,-27.344,0.000
1621214932.242,-39.062,-30.762,-37.598,-28.809,0.000
1621214932.246,-49.316,-29.297,-37.598,-28.320,0.000
1621214932.250,-50.293,-21.484,-36.621,-26.855,0.000
1621214932.254,-40.039,-26.855,-35.645,-19.043,0.000
1621214932.258,-29.297,-36.133,-36.133,-15.625,0.000
1621214932.261,-28.320,-33.203,-32.715,-14.648,0.000
1621214932.265,-23.438,-33.691,-37.598,-19.531,0.000
1621214932.269,-30.762,-39.551,-47.852,-27.832,0.000
1621214932.273,-40.039,-32.227,-41.016,-28.320,0.000
1621214932.277,-31.250,-26.855,-38.086,-38.086,0.000
1621214932.281,-22.949,-29.297,-40.527,-34.668,0.000
1621214932.285,-27.344,-27.344,-32.227,-32.715,0.000
1621214932.289,-41.992,-28.320,-41.016,-55.664,0.000
1621214932.293,-44.922,-32.715,-48.340,-51.270,0.000
1621214932.297,-43.945,-26.367,-39.062,-41.504,0.000
1621214932.300,-32.227,-17.090,-44.434,-44.922,0.000
1621214932.304,-25.391,-20.996,-52.734,-39.551,0.000
1621214932.308,-44.434,-26.855,-43.945,-49.316,0.000
1621214932.312,-44.922,-20.020,-48.340,-55.176,0.000
1621214932.316,-41.016,-6.348,-57.129,-44.434,0.000
1621214932.320,-55.664,-10.742,-49.805,-54.688,0.000
1621214932.324,-66.895,-18.555,-49.316,-61.035,0.000
1621214932.328,-64.453,-12.695,-51.758,-60.547,0.000
1621214932.332,-49.316,-10.742,-59.082,-65.918,0.000
1621214932.336,-42.969,-5.859,-61.523,-75.195,0.000
1621214932.340,-44.922,1.953,-65.430,-74.219,0.000
1621214932.343,-54.688,1.953,-74.219,-68.848,0.000
1621214932.347,-62.500,-7.324,-73.242,-78.613,0.000
1621214932.351,-64.941,-13.672,-73.242,-80.566,0.000
1621214932.355,-55.664,-14.160,-75.195,-62.012,0.000
1621214932.359,-35.156,-13.672,-66.895,-54.199,0.000
1621214932.363,-45.898,-15.137,-54.688,-69.336,0.000
1621214932.367,-51.758,-18.066,-64.453,-69.824,0.000
1621214932.371,-33.203,-21.484,-74.219,-50.293,0.000
1621214932.375,-29.785,-19.531,-65.430,-49.805,0.000
1621214932.379,-30.273,-16.602,-54.199,-56.641,0.000
1621214932.383,-18.555,-25.879,-56.641,-46.387,0.000
1621214932.386,-26.367,-29.785,-61.035,-38.574,0.000
1621214932.390,-30.762,-26.367,-65.918,-48.828,0.000
1621214932.394,-26.855,-23.926,-62.988,-58.594,0.000
1621214932.398,-28.320,-24.902,-55.664,-41.504,0.000
1621214932.402,-21.484,-22.461,-54.688,-28.809,0.000
1621214932.406,-26.855,-19.531,-47.852,-35.645,0.000
1621214932.410,-30.273,-20.020,-47.852,-38.086,0.000
1621214932.414,-21.973,-18.066,-42.969,-22.461,0.000
1621214932.418,-22.949,-18.555,-42.480,-6.836,0.000
1621214932.422,-16.113,-19.043,-46.875,-9.277,0.000
1621214932.425,-11.230,-20.020,-46.875,-26.367,0.000
1621214932.429,-25.391,-28.809,-50.293,-32.227,0.000
1621214932.433,-32.227,-28.320,-46.875,-20.020,0.000
1621214932.437,-21.973,-26.367,-49.316,-28.320,0.000
1621214932.441,-18.555,-21.973,-52.246,-37.109,0.000
1621214932.445,-23.438,-21.484,-41.992,-16.602,0.000
1621214932.449,-28.809,-31.250,-39.062,-27.344,0.000
1621214932.453,-28.809,-25.391,-41.016,-45.410,0.000
1621214932.457,-25.879,-20.996,-43.945,-33.691,0.000
1621214932.461,-25.391,-21.973,-47.363,-29.785,0.000
1621214932.465,-34.668,-18.066,-41.992,-29.785,0.000
1621214932.468,-30.762,-20.996,-27.832,-39.062,0.000
1621214932.472,-27.344,-19.531,-25.879,-48.828,0.000
1621214932.476,-42.969,-20.508,-34.668,-48.828,0.000
1621214932.480,-55.176,-19.531,-35.645,-43.945,0.000
1621214932.484,-67.383,-16.602,-35.156,-54.688,0.000
1621214932.488,-70.312,-20.508,-30.273,-71.289,0.000
1621214932.492,-74.219,-17.578,-25.879,-70.312,0.000
1621214932.496,-99.121,-18.555,-23.438,-80.078,0.000
1621214932.500,-115.234,-21.484,-22.461,-104.004,0.000
1621214932.504,-122.070,-21.484,-27.832,-128.418,0.000
1621214932.508,-158.691,-26.855,-38.086,-148.926,0.000
1621214932.511,-180.176,-37.109,-42.969,-159.668,0.000
1621214932.515,-187.988,-39.062,-22.461,-180.664,0.000
1621214932.519,-204.590,-30.273,-9.277,-212.891,0.000
1621214932.523,-223.145,-34.180,-52.246,-219.727,0.000
1621214932.527,-232.422,-35.645,-55.664,-233.887,0.000
1621214932.531,-239.746,-36.621,-12.695,-239.746,0.000
1621214932.535,-246.582,-41.992,-17.090,-225.098,0.000
1621214932.539,-240.723,-33.691,-3.418,-220.703,0.000
1621214932.543,-229.004,-26.855,12.207,-224.121,0.000
1621214932.547,-218.750,-26.855,-3.906,-218.262,0.000
1621214932.551,-209.473,-26.367,-15.137,-208.984,0.000
1621214932.554,-198.242,-35.156,-28.320,-197.754,0.000
1621214932.558,-177.734,-38.086,-18.555,-177.246,0.000
1621214932.562,-168.457,-32.227,-8.301,-167.480,0.000
1621214932.566,-160.156,-25.879,-14.160,-153.809,0.000
1621214932.570,-133.789,-21.973,-11.719,-127.441,0.000
1621214932.574,-109.375,-23.926,-17.578,-110.840,0.000
1621214932.578,-108.887,-27.344,-33.691,-99.609,0.000
1621214932.582,-86.914,-26.855,-36.621,-83.496,0.000
1621214932.586,-68.848,-21.973,-27.344,-72.266,0.000
1621214932.590,-62.012,-18.066,-28.809,-62.988,0.000
1621214932.593,-37.598,-21.973,-43.945,-67.383,0.000
1621214932.597,-37.109,-24.902,-46.875,-47.852,0.000
1621214932.601,-38.574,-20.508,-42.969,-21.973,0.000
1621214932.605,-15.137,-19.043,-40.527,-15.137,0.000
1621214932.609,-16.602,-24.414,-41.504,-5.371,0.000
1621214932.613,-25.391,-25.391,-44.922,9.277,0.000
1621214932.617,4.395,-20.508,-47.363,15.137,0.000
1621214932.621,24.902,-18.555,-54.199,25.391,0.000
1621214932.625,25.879,-20.020,-54.688,41.504,0.000
1621214932.629,10.742,-23.438,-38.574,36.621,0.000
1621214932.633,31.250,-26.367,-35.645,35.645,0.000
1621214932.636,42.480,-23.926,-55.176,41.992,0.000
1621214932.640,37.598,-20.508,-63.965,37.598,0.000
1621214932.644,56.152,-17.090,-42.480,50.781,0.000
1621214932.648,64.941,-21.973,-39.551,62.012,0.000
1621214932.652,61.523,-27.344,-44.922,53.711,0.000
1621214932.656,62.500,-29.785,-44.434,51.758,0.000
1621214932.660,71.777,-29.785,-47.363,62.500,0.000
1621214932.664,74.219,-27.344,-41.504,66.406,0.000
1621214932.668,58.105,-26.367,-48.340,65.918,0.000
1621214932.672,53.711,-26.367,-59.570,60.059,0.000
1621214932.675,54.199,-24.902,-51.270,51.758,0.000
1621214932.679,57.617,-22.461,-52.246,56.152,0.000
1621214932.683,62.988,-22.461,-57.617,61.035,0.000
1621214932.687,58.594,-23.926,-38.086,63.477,0.000
1621214932.691,45.410,-22.461,-31.738,60.059,0.000
1621214932.695,52.246,-25.391,-47.852,54.199,0.000
1621214932.699,64.941,-26.367,-46.875,55.176,0.000
1621214932.703,55.176,-24.902,-48.828,60.547,0.000
1621214932.707,56.641,-26.855,-44.922,62.988,0.000
1621214932.711,54.199,-23.438,-26.367,62.988,0.000
1621214932.715,50.781,-24.902,-19.531,63.965,0.000
1621214932.718,50.781,-32.227,-46.875,69.336,0.000
1621214932.722,44.434,-31.250,-66.406,60.059,0.000
1621214932.726,42.969,-30.762,-56.641,42.969,0.000
1621214932.730,48.828,-29.785,-56.152,45.898,0.000
1621214932.734,47.852,-26.855,-45.898,48.828,0.000
1621214932.738,41.504,-29.297,-28.320,47.363,0.000
1621214932.742,46.875,-31.738,-28.320,43.945,0.000
1621214932.746,41.992,-34.180,-32.715,40.527,0.000
1621214932.750,36.621,-35.645,-34.668,36.133,0.000
1621214932.754,28.809,-39.551,-39.062,29.785,0.000
1621214932.758,28.320,-33.203,-36.133,19.531,0.000
1621214932.761,40.039,-20.996,-34.668,12.695,0.000
1621214932.765,33.203,-20.508,-39.062,17.090,0.000
1621214932.769,26.855,-22.461,-41.992,21.484,0.000
1621214932.773,24.902,-24.414,-36.621,26.367,0.000
1621214932.777,25.879,-30.762,-33.691,18.555,0.000
1621214932.781,22.461,-32.227,-39.062,9.766,0.000
1621214932.785,20.020,-30.762,-38.086,14.160,0.000
1621214932.789,29.297,-32.227,-39.551,11.719,0.000
1621214932.793,28.809,-37.109,-39.551,13.184,0.000
1621214932.797,23.926,-37.598,-37.598,14.160,0.000
1621214932.800,8.789,-36.621,-35.645,5.859,0.000
1621214932.804,-1.465,-38.574,-37.598,6.836,0.000
1621214932.808,16.602,-34.180,-36.621,13.672,0.000
1621214932.812,20.020,-31.250,-41.016,15.137,0.000
1621214932.816,9.277,-28.809,-50.293,0.488,0.000
1621214932.820,17.578,-30.762,-48.828,-2.930,0.000
1621214932.824,17.090,-30.762,-41.016,6.836,0.000
1621214932.828,0.977,-24.902,-39.062,12.695,0.000
1621214932.832,2.441,-26.855,-37.109,12.695,0.000
1621214932.836,10.742,-31.738,-35.156,10.742,0.000
1621214932.840,10.742,-31.738,-33.203,10.254,0.000
1621214932.843,1.465,-28.320,-39.062,5.371,0.000
1621214932.847,1.953,-32.227,-44.434,-1.953,0.000
1621214932.851,8.301,-35.645,-39.062,0.488,0.000
1621214932.855,12.207,-34.668,-37.109,2.930,0.000
1621214932.859,4.395,-36.621,-42.480,-5.371,0.000
1621214932.863,-4.395,-39.062,-47.363,-14.648,0.000
1621214932.867,3.418,-41.992,-37.598,-9.766,0.000
1621214932.871,-0.488,-43.945,-33.203,9.277,0.000
1621214932.875,1.953,-36.621,-38.574,2.930,0.000
1621214932.879,11.719,-31.738,-39.062,-7.324,0.000
1621214932.883,2.441,-36.133,-29.785,-3.418,0.000
1621214932.886,-19.531,-34.180,-29.785,-1.953,0.000
1621214932.890,-29.785,-31.250,-35.645,1.465,0.000
1621214932.894,-24.414,-33.691,-42.969,-9.277,0.000
1621214932.898,-19.043,-32.715,-44.434,-9.277,0.000
1621214932.902,-21.973,-36.621,-41.992,-1.465,0.000
1621214932.906,-24.902,-42.969,-32.227,-12.695,0.000
1621214932.910,-5.859,-36.133,-15.137,-15.137,0.000
1621214932.914,3.418,-31.250,-15.625,-14.160,0.000
1621214932.918,-5.371,-30.762,-32.227,-7.812,0.000
1621214932.922,-15.625,-25.879,-29.297,-3.418,0.000
1621214932.926,-9.766,-26.855,-22.949,-13.672,0.000
1621214932.929,-5.371,-28.809,-24.902,-10.742,0.000
1621214932.933,-12.207,-30.762,-29.785,-8.301,0.000
1621214932.937,-13.672,-34.180,-35.156,-13.672,0.000
1621214932.941,-17.578,-35.645,-32.715,-12.207,0.000
1621214932.945,-20.020,-36.621,-32.227,-7.812,0.000
1621214932.949,-17.090,-36.621,-37.598,-10.742,0.000
1621214932.953,-13.672,-31.738,-30.762,-19.531,0.000
1621214932.957,-19.531,-25.879,-27.832,-24.902,0.000
1621214932.961,-19.531,-23.438,-34.668,-26.367,0.000
1621214932.965,-9.766,-20.996,-48.340,-19.531,0.000
1621214932.968,-10.742,-17.578,-56.641,-15.625,0.000
1621214932.972,-10.742,-16.602,-45.410,-13.672,0.000
1621214932.976,-4.395,-18.066,-35.156,-17.090,0.000
1621214932.980,-12.207,-20.996,-35.645,-26.367,0.000
1621214932.984,-16.113,-22.461,-39.062,-18.555,0.000
1621214932.988,-16.602,-24.414,-34.180,-11.230,0.000
1621214932.992,-25.391,-23.926,-24.902,-14.160,0.000
1621214932.996,-28.809,-24.414,-36.133,-24.414,0.000
1621214933.000,-29.297,-25.391,-46.875,-22.461,0.000
1621214933.004,-20.508,-22.949,-46.387,-9.766,0.000
1621214933.008,-10.742,-24.414,-57.617,-13.672,0.000
1621214933.011,-11.230,-29.785,-47.363,-26.367,0.000
1621214933.015,-15.625,-32.715,-36.133,-25.879,0.000
1621214933.019,-15.137,-31.738,-46.387,-23.926,0.000
1621214933.023,-8.789,-36.133,-48.340,-17.090,0.000
1621214933.027,-12.695,-37.109,-31.250,-10.742,0.000
1621214933.031,-26.367,-35.645,-20.508,-11.230,0.000
1621214933.035,-22.949,-36.133,-42.480,-1.953,0.000
1621214933.039,-16.113,-34.668,-58.105,-1.465,0.000
1621214933.043,-13.184,-31.738,-50.781,-8.789,0.000
1621214933.047,-12.695,-29.297,-38.574,-18.555,0.000
1621214933.050,-24.902,-30.762,-41.992,-21.484,0.000
1621214933.054,-17.090,-30.273,-45.898,-13.672,0.000
1621214933.058,-3.906,-25.391,-41.504,-0.488,0.000
1621214933.062,0.977,-23.926,-44.922,-9.277,0.000
1621214933.066,-1.465,-30.762,-40.039,-19.043,0.000
1621214933.070,-18.066,-35.156,-33.691,-14.160,0.000
1621214933.074,-2.930,-35.156,-30.762,-18.555,0.000
1621214933.078,8.789,-32.227,-43.457,-6.836,0.000
1621214933.082,-13.672,-31.250,-43.945,-7.324,0.000
1621214933.086,-23.438,-38.574,-33.691,-24.902,0.000
1621214933.090,-10.742,-41.992,-41.992,-18.555,0.000
1621214933.093,-11.719,-35.156,-36.133,-8.301,0.000
1621214933.097,-11.230,-31.250,-29.297,-6.836,0.000
1621214933.101,-15.137,-30.273,-37.109,-12.207,0.000
1621214933.105,-22.949,-31.250,-46.387,-15.137,0.000
1621214933.109,-19.043,-31.250,-37.598,-15.137,0.000
1621214933.113,-15.137,-28.320,-30.273,-20.996,0.000
1621214933.117,-15.625,-28.320,-47.852,-22.461,0.000
1621214933.121,-22.461,-34.180,-39.062,-16.602,0.000
1621214933.125,-13.184,-36.133,-23.438,-7.812,0.000
1621214933.129,-14.160,-33.203,-33.203,-8.789,0.000
1621214933.133,-25.879,-32.227,-37.598,-15.137,0.000
1621214933.136,-9.766,-32.227,-36.133,-15.137,0.000
1621214933.140,-11.230,-33.203,-35.156,-25.879,0.000
1621214933.144,-29.297,-31.250,-34.668,-30.762,0.000
1621214933.148,-28.809,-34.180,-41.992,-24.414,0.000
1621214933.152,-15.625,-34.668,-41.016,-20.020,0.000
1621214933.156,-19.531,-29.297,-40.527,-20.020,0.000
1621214933.160,-21.484,-31.250,-61.523,-22.949,0.000
1621214933.164,-5.371,-35.156,-62.012,-30.273,0.000
1621214933.168,-2.441,-34.180,-29.297,-33.691,0.000
1621214933.172,-8.301,-29.297,-14.648,-24.902,0.000
1621214933.175,-13.672,-26.855,-24.902,-20.996,0.000
1621214933.179,-13.184,-31.738,-27.832,-22.461,0.000
1621214933.183,-7.812,-33.691,-31.250,-18.555,0.000
1621214933.187,-9.766,-34.180,-42.969,-13.184,0.000
1621214933.191,-15.625,-33.203,-39.551,-18.066,0.000
1621214933.195,-14.160,-34.180,-31.738,-22.461,0.000
1621214933.199,-13.184,-33.691,-38.574,-21.484,0.000
1621214933.203,-17.578,-32.715,-41.016,-22.461,0.000
1621214933.207,-24.902,-36.133,-35.645,-11.719,0.000
1621214933.211,-17.090,-30.762,-22.949,-11.719,0.000
1621214933.215,-19.531,-29.297,-39.551,-29.297,0.000
1621214933.218,-31.738,-31.738,-52.734,-20.508,0.000
1621214933.222,-31.250,-30.762,-37.598,-13.672,0.000
1621214933.226,-24.902,-35.156,-36.133,-22.461,0.000
1621214933.230,-19.531,-33.691,-39.062,-28.320,0.000
1621214933.234,-23.438,-29.297,-44.922,-19.531,0.000
1621214933.238,-24.414,-29.785,-37.598,-16.602,0.000
1621214933.242,-18.555,-30.762,-29.297,-28.809,0.000
1621214933.246,-27.832,-27.832,-39.062,-33.203,0.000
1621214933.250,-29.297,-27.832,-45.898,-31.250,0.000
1621214933.254,-26.367,-28.809,-44.434,-18.066,0.000
1621214933.258,-20.020,-28.320,-38.574,-5.371,0.000
1621214933.261,-15.137,-31.738,-23.438,-12.695,0.000
1621214933.265,-17.578,-28.809,-33.691,-20.996,0.000
1621214933.269,-18.066,-26.367,-62.988,-19.531,0.000
1621214933.273,-19.531,-29.297,-59.570,-17.578,0.000
1621214933.277,-12.207,-31.738,-42.480,-26.855,0.000
1621214933.281,-16.113,-27.344,-34.668,-34.180,0.000
1621214933.285,-19.043,-21.973,-30.273,-21.484,0.000
1621214933.289,-10.742,-25.391,-29.297,-14.160,0.000
1621214933.293,-27.344,-25.879,-37.109,-16.602,0.000
1621214933.297,-28.809,-29.785,-37.598,-16.113,0.000
1621214933.300,-10.742,-30.762,-30.762,-14.160,0.000
1621214933.304,-18.066,-27.832,-29.785,-14.160,0.000
1621214933.308,-23.438,-29.785,-26.855,-14.648,0.000
1621214933.312,-25.391,-33.203,-37.598,-22.949,0.000
1621214933.316,-17.578,-30.273,-43.945,-33.203,0.000
1621214933.320,-8.789,-28.320,-33.203,-24.414,0.000
1621214933.324,-25.879,-27.344,-34.668,-21.973,0.000
1621214933.328,-32.227,-24.902,-33.203,-28.809,0.000
1621214933.332,-28.320,-27.344,-33.691,-24.414,0.000
1621214933.336,-25.879,-29.785,-36.133,-19.531,0.000
1621214933.340,-20.020,-29.785,-38.086,-20.508,0.000
1621214933.343,-32.227,-31.738,-35.156,-25.391,0.000
1621214933.347,-32.715,-31.250,-35.645,-20.508,0.000
1621214933.351,-23.926,-31.738,-38.574,-22.461,0.000
1621214933.355,-29.297,-35.645,-43.457,-30.762,0.000
1621214933.359,-37.598,-34.180,-58.105,-38.574,0.000
1621214933.363,-23.438,-30.762,-60.059,-38.086,0.000
1621214933.367,-10.254,-31.738,-51.758,-27.832,0.000
1621214933.371,-23.926,-35.645,-36.133,-35.156,0.000
1621214933.375,-23.926,-34.180,-22.461,-43.945,0.000
1621214933.379,-27.344,-32.227,-21.973,-34.180,0.000
1621214933.383,-29.785,-35.156,-32.227,-28.320,0.000
1621214933.386,-26.855,-34.668,-30.762,-25.391,0.000
1621214933.390,-32.227,-38.086,-32.715,-17.578,0.000
1621214933.394,-26.367,-34.180,-33.203,-24.902,0.000
1621214933.398,-22.461,-29.785,-29.297,-25.879,0.000
1621214933.402,-19.531,-35.645,-33.203,-10.742,0.000
1621214933.406,-16.113,-32.227,-31.250,-18.555,0.000
1621214933.410,-18.066,-29.297,-37.109,-21.973,0.000
1621214933.414,-23.926,-30.762,-47.363,-23.438,0.000
1621214933.418,-26.367,-29.297,-48.828,-23.926,0.000
1621214933.422,-15.137,-28.809,-43.457,-20.996,0.000
1621214933.425,-8.789,-24.902,-39.062,-18.066,0.000
1621214933.429,-18.555,-31.250,-39.062,-21.484,0.000
1621214933.433,-13.672,-37.598,-34.180,-24.414,0.000
1621214933.437,-37.598,-37.598,-30.273,-20.508,0.000
1621214933.441,-43.945,-38.086,-26.367,-20.508,0.000
1621214933.445,-22.949,-38.086,-23.926,-11.230,0.000
1621214933.449,-25.879,-39.551,-27.344,-13.672,0.000
1621214933.453,-25.391,-39.062,-27.832,-24.414,0.000
1621214933.457,-33.203,-39.062,-27.832,-14.648,0.000
1621214933.461,-31.250,-42.480,-25.879,-17.578,0.000
1621214933.465,-24.414,-43.945,-24.414,-22.461,0.000
1621214933.468,-25.391,-40.039,-31.250,-16.602,0.000
1621214933.472,-23.926,-39.551,-32.227,-16.602,0.000
1621214933.476,-23.926,-43.945,-28.320,-11.719,0.000
1621214933.480,-10.742,-40.527,-22.461,-5.859,0.000
1621214933.484,-17.578,-36.133,-20.020,1.465,0.000
1621214933.488,-15.625,-39.062,-36.133,-0.977,0.000
1621214933.492,-8.301,-42.480,-40.527,-5.371,0.000
1621214933.496,-20.508,-42.969,-28.809,0.000,0.000
1621214933.500,-8.301,-40.039,-21.484,8.789,0.000
1621214933.504,-3.906,-35.156,-23.926,0.488,0.000
1621214933.508,-10.254,-33.203,-32.227,-10.742,0.000
1621214933.511,-20.020,-30.762,-35.156,-16.113,0.000
1621214933.515,-29.297,-31.250,-26.367,-29.785,0.000
1621214933.519,-25.879,-30.273,-26.367,-24.414,0.000
1621214933.523,-36.133,-28.320,-39.551,-19.043,0.000
1621214933.527,-31.738,-30.273,-36.621,-18.555,0.000
1621214933.531,-5.859,-34.668,-35.645,-15.625,0.000
1621214933.535,-6.348,-37.598,-38.574,-18.066,0.000
1621214933.539,-20.020,-43.457,-32.715,-16.602,0.000
1621214933.543,-21.484,-45.410,-29.785,-20.508,0.000
1621214933.547,-19.531,-40.039,-28.809,-21.484,0.000
1621214933.550,-20.020,-41.992,-26.855,-11.719,0.000
1621214933.554,-15.137,-42.480,-41.016,-14.160,0.000
1621214933.558,-15.137,-44.922,-41.016,-14.160,0.000
1621214933.562,-17.578,-46.387,-22.949,-7.812,0.000
1621214933.566,-37.109,-41.504,-13.672,-17.090,0.000
1621214933.570,-44.922,-39.551,-18.066,-11.719,0.000
1621214933.574,-21.484,-39.062,-33.203,-12.695,0.000
1621214933.578,-19.531,-41.992,-31.738,-20.996,0.000
1621214933.582,-8.301,-41.016,-20.020,-6.836,0.000
1621214933.586,-8.301,-34.668,-20.020,-1.953,0.000
1621214933.590,-11.719,-33.203,-28.809,-20.996,0.000
1621214933.593,-14.648,-37.598,-27.344,-31.250,0.000
1621214933.597,-26.855,-38.086,-29.297,-21.973,0.000
1621214933.601,-28.809,-33.691,-29.297,-7.812,0.000
1621214933.605,-19.531,-35.156,-26.855,2.441,0.000
1621214933.609,-18.555,-35.156,-36.133,9.277,0.000
1621214933.613,-25.879,-34.180,-40.527,-9.766,0.000
1621214933.617,-27.344,-35.156,-38.574,-21.973,0.000
1621214933.621,-15.137,-31.250,-36.133,-7.812,0.000
1621214933.625,-16.602,-30.762,-36.621,-7.812,0.000
1621214933.629,-32.715,-32.227,-32.715,-20.996,0.000
1621214933.633,-30.273,-27.344,-42.480,-31.250,0.000
1621214933.636,-20.020,-26.855,-55.664,-22.461,0.000
1621214933.640,-21.973,-31.738,-41.992,-13.672,0.000
1621214933.644,-29.785,-35.645,-34.668,-25.879,0.000
1621214933.648,-28.809,-39.062,-35.645,-20.996,0.000
1621214933.652,-28.809,-40.527,-27.832,-5.859,0.000
1621214933.656,-29.297,-37.109,-32.227,-19.043,0.000
1621214933.660,-20.020,-31.738,-37.598,-29.785,0.000
1621214933.664,-10.742,-33.691,-36.621,-16.602,0.000
1621214933.668,-14.648,-35.156,-37.598,-15.625,0.000
1621214933.672,-13.672,-32.715,-38.086,-27.344,0.000
1621214933.675,-14.160,-30.273,-46.875,-26.367,0.000
1621214933.679,-30.273,-35.156,-53.223,-18.066,0.000
1621214933.683,-44.434,-36.621,-46.875,-11.230,0.000
1621214933.687,-25.391,-33.203,-45.898,-24.902,0.000
1621214933.691,-29.785,-36.133,-47.852,-37.598,0.000
1621214933.695,-40.039,-37.109,-48.340,-31.738,0.000
1621214933.699,-17.090,-36.621,-42.969,-31.738,0.000
1621214933.703,-13.672,-35.645,-38.574,-36.621,0.000
1621214933.707,-23.926,-33.203,-34.180,-22.949,0.000
1621214933.711,-25.391,-30.273,-31.250,-23.438,0.000
1621214933.715,-24.902,-22.949,-30.762,-26.855,0.000
1621214933.718,-27.832,-21.484,-29.297,-10.742,0.000
1621214933.722,-20.020,-22.949,-31.738,-10.742,0.000
1621214933.726,-11.230,-24.902,-39.551,-10.742,0.000
1621214933.730,-23.926,-29.297,-39.551,-14.160,0.000
1621214933.734,-36.133,-30.762,-25.879,-15.137,0.000
1621214933.738,-38.086,-29.785,-35.645,-7.812,0.000
1621214933.742,-31.738,-29.785,-44.922,-26.855,0.000
1621214933.746,-20.508,-27.344,-37.109,-30.762,0.000
1621214933.750,-13.184,-27.344,-39.551,-20.020,0.000
1621214933.754,-2.441,-26.855,-37.598,-6.836,0.000
1621214933.758,-21.973,-30.762,-31.738,-12.695,0.000
1621214933.761,-55.664,-32.715,-40.527,-21.973,0.000
1621214933.765,-50.781,-32.715,-44.434,-21.484,0.000
1621214933.769,-39.062,-32.715,-37.598,-19.043,0.000
1621214933.773,-41.992,-34.180,-32.227,-14.160,0.000
1621214933.777,-63.477,-37.109,-26.855,-24.414,0.000
1621214933.781,-55.176,-41.504,-26.855,-26.855,0.000
1621214933.785,-41.504,-42.480,-25.879,-20.020,0.000
1621214933.789,-37.598,-34.668,-25.391,-39.062,0.000
1621214933.793,-32.715,-30.762,-28.809,-52.246,0.000
1621214933.797,-42.969,-32.227,-36.133,-37.598,0.000
1621214933.800,-27.344,-31.738,-27.832,-26.367,0.000
1621214933.804,-28.809,-31.738,-23.438,-20.020,0.000
1621214933.808,-54.199,-35.645,-46.387,-36.621,0.000
1621214933.812,-41.016,-32.715,-48.828,-48.340,0.000
1621214933.816,-27.344,-30.273,-33.691,-33.691,0.000
1621214933.820,-26.855,-33.691,-32.715,-26.367,0.000
1621214933.824,-34.668,-34.668,-33.691,-25.391,0.000
1621214933.828,-30.762,-34.668,-29.297,-39.062,0.000
1621214933.832,-33.203,-30.273,-25.391,-44.434,0.000
1621214933.836,-36.621,-29.297,-30.762,-38.086,0.000
1621214933.840,-33.691,-32.227,-48.828,-20.508,0.000
1621214933.843,-32.227,-27.344,-43.945,-27.344,0.000
1621214933.847,-37.598,-28.320,-28.320,-31.250,0.000
1621214933.851,-38.574,-31.250,-28.320,-20.996,0.000
1621214933.855,-24.414,-32.227,-31.738,-25.391,0.000
1621214933.859,-28.809,-35.645,-44.922,-23.438,0.000
1621214933.863,-39.062,-33.203,-49.805,-23.926,0.000
1621214933.867,-21.484,-30.273,-45.410,-12.207,0.000
1621214933.871,-14.648,-34.180,-41.992,-5.371,0.000
1621214933.875,-38.574,-35.645,-38.086,-10.742,0.000
1621214933.879,-31.738,-31.738,-39.062,-9.277,0.000
1621214933.882,-32.715,-28.809,-36.133,-14.160,0.000
1621214933.886,-32.227,-31.250,-30.762,-19.043,0.000
1621214933.890,-11.719,-28.320,-35.156,-4.883,0.000
1621214933.894,-15.137,-25.391,-38.574,-4.395,0.000
1621214933.898,-18.066,-24.902,-35.645,-15.625,0.000
1621214933.902,-24.902,-28.809,-36.621,-15.625,0.000
1621214933.906,-27.832,-33.691,-38.086,-27.832,0.000
1621214933.910,-35.645,-31.738,-38.086,-24.414,0.000
1621214933.914,-32.715,-28.809,-47.852,-13.184,0.000
1621214933.918,-23.438,-25.391,-44.434,-6.348,0.000
1621214933.922,-31.250,-30.273,-39.062,-12.207,0.000
1621214933.925,-33.691,-27.344,-41.504,-28.320,0.000
1621214933.929,-23.926,-20.020,-38.574,-17.578,0.000
1621214933.933,-20.996,-26.367,-39.062,-1.953,0.000
1621214933.937,-28.320,-27.832,-36.621,-0.977,0.000
1621214933.941,-27.344,-26.367,-35.645,-20.508,0.000
1621214933.945,-16.602,-29.297,-41.992,-36.621,0.000
1621214933.949,-21.973,-33.203,-39.062,-27.344,0.000
1621214933.953,-36.621,-35.156,-35.156,-20.508,0.000
1621214933.957,-35.645,-33.203,-40.039,-26.367,0.000
1621214933.961,-37.598,-29.297,-41.504,-33.691,0.000
1621214933.965,-27.344,-28.320,-41.504,-43.945,0.000
1621214933.968,-27.344,-34.668,-41.504,-45.898,0.000
1621214933.972,-41.504,-39.062,-41.016,-58.105,0.000
1621214933.976,-42.480,-36.621,-40.527,-57.617,0.000
1621214933.980,-28.320,-32.715,-38.086,-39.551,0.000
1621214933.984,-30.762,-30.762,-37.109,-32.227,0.000
1621214933.988,-42.480,-31.250,-31.250,-40.527,0.000
1621214933.992,-41.504,-33.203,-33.203,-32.715,0.000
1621214933.996,-36.133,-35.156,-48.340,-24.902,0.000
1621214934.000,-31.250,-32.715,-47.852,-37.109,0.000
1621214934.004,-45.410,-33.203,-36.133,-33.203,0.000
1621214934.008,-41.504,-33.691,-32.715,-37.598,0.000
1621214934.011,-33.691,-34.180,-43.457,-44.434,0.000
1621214934.015,-45.410,-34.668,-41.504,-30.273,0.000
1621214934.019,-46.875,-35.156,-35.156,-31.250,0.000
1621214934.023,-36.133,-36.621,-34.668,-34.180,0.000
1621214934.027,-31.250,-35.156,-36.133,-35.645,0.000
1621214934.031,-39.551,-28.809,-42.480,-47.852,0.000
1621214934.035,-48.340,-31.250,-44.922,-40.527,0.000
1621214934.039,-47.852,-33.691,-43.945,-23.926,0.000
1621214934.043,-37.598,-27.344,-45.410,-20.996,0.000
1621214934.047,-31.738,-24.902,-39.551,-29.297,0.000
1621214934.050,-36.133,-31.738,-36.621,-37.598,0.000
1621214934.054,-46.875,-36.133,-41.992,-29.785,0.000
1621214934.058,-42.969,-31.738,-35.156,-15.137,0.000
1621214934.062,-36.621,-26.855,-34.668,-25.879,0.000
1621214934.066,-31.738,-27.832,-41.016,-34.668,0.000
1621214934.070,-27.344,-31.738,-39.062,-25.879,0.000
1621214934.074,-31.738,-31.738,-37.598,-26.367,0.000
1621214934.078,-34.668,-29.297,-38.574,-40.039,0.000
1621214934.082,-23.438,-30.762,-37.598,-28.809,0.000
1621214934.086,-10.254,-27.832,-41.992,-11.230,0.000
1621214934.090,-28.809,-28.809,-44.922,-21.973,0.000
1621214934.093,-41.016,-37.109,-42.969,-30.762,0.000
1621214934.097,-37.598,-36.621,-42.969,-34.668,0.000
1621214934.101,-38.574,-40.039,-40.039,-31.250,0.000
1621214934.105,-31.250,-34.180,-39.062,-27.344,0.000
1621214934.109,-36.133,-27.832,-38.574,-32.715,0.000
1621214934.113,-47.852,-28.320,-35.156,-28.320,0.000
1621214934.117,-44.922,-28.320,-35.156,-21.973,0.000
1621214934.121,-27.832,-30.273,-40.039,-27.832,0.000
1621214934.125,-30.762,-28.320,-27.832,-28.809,0.000
1621214934.129,-33.691,-31.738,-39.062,-21.484,0.000
1621214934.133,-20.996,-34.668,-59.570,-10.254,0.000
1621214934.136,-21.484,-34.668,-48.340,-10.254,0.000
1621214934.140,-29.785,-33.691,-41.992,-19.531,0.000
1621214934.144,-34.180,-29.785,-35.645,-17.578,0.000
1621214934.148,-30.762,-31.738,-30.273,-19.531,0.000
1621214934.152,-33.203,-30.762,-31.738,-24.414,0.000
1621214934.156,-31.250,-32.715,-31.738,-17.090,0.000
1621214934.160,-16.113,-31.250,-29.785,-5.859,0.000
1621214934.164,-12.207,-19.043,-32.715,-15.137,0.000
1621214934.168,-24.414,-18.066,-35.645,-22.949,0.000
1621214934.172,-18.066,-18.066,-41.504,-17.090,0.000
1621214934.175,-8.789,-15.137,-47.363,-28.320,0.000
1621214934.179,-24.902,-13.184,-44.434,-32.227,0.000
1621214934.183,-31.250,-6.348,-41.992,-38.574,0.000
1621214934.187,-20.508,-7.324,-47.852,-40.527,0.000
1621214934.191,-25.879,-8.301,-47.852,-35.645,0.000
1621214934.195,-38.574,-5.371,-51.270,-39.551,0.000
1621214934.199,-35.156,-7.324,-61.035,-28.809,0.000
1621214934.203,-24.414,-4.883,-55.664,-20.508,0.000
1621214934.207,-21.484,-6.836,-48.340,-35.645,0.000
1621214934.211,-30.273,-13.184,-48.828,-44.434,0.000
1621214934.215,-29.297,-20.508,-48.828,-28.809,0.000
1621214934.218,-16.113,-24.902,-50.293,-20.020,0.000
1621214934.222,-20.508,-18.555,-53.223,-35.156,0.000
1621214934.226,-24.414,-14.160,-58.105,-56.152,0.000
1621214934.230,-14.160,-13.184,-55.176,-44.434,0.000
1621214934.234,-28.320,-18.555,-41.504,-20.508,0.000
1621214934.238,-41.992,-21.973,-36.621,-21.973,0.000
1621214934.242,-37.109,-18.066,-36.621,-39.062,0.000
1621214934.246,-25.391,-19.531,-38.574,-26.367,0.000
1621214934.250,-23.438,-19.531,-42.969,-21.973,0.000
1621214934.254,-38.574,-20.020,-45.898,-34.180,0.000
1621214934.257,-29.297,-23.438,-38.574,-38.574,0.000
1621214934.261,-31.738,-26.855,-34.180,-45.410,0.000
1621214934.265,-39.551,-32.715,-48.340,-39.551,0.000
1621214934.269,-12.207,-31.738,-53.223,-21.973,0.000
1621214934.273,-21.973,-23.438,-41.992,-12.695,0.000
1621214934.277,-46.387,-22.949,-38.574,-20.508,0.000
1621214934.281,-20.996,-25.879,-43.945,-22.949,0.000
1621214934.285,-8.301,-23.926,-43.945,-11.719,0.000
1621214934.289,-5.371,-21.484,-41.504,-21.484,0.000
1621214934.293,-3.418,-22.949,-44.434,-27.344,0.000
1621214934.297,-26.855,-26.855,-48.828,-26.367,0.000
1621214934.300,-28.809,-26.367,-47.363,-23.438,0.000
1621214934.304,-22.949,-27.832,-45.410,-10.254,0.000
1621214934.308,-35.156,-28.320,-44.922,-10.254,0.000
1621214934.312,-36.621,-24.902,-38.086,-16.602,0.000
1621214934.316,-29.785,-22.461,-32.227,-36.133,0.000
1621214934.320,-38.086,-23.926,-36.133,-39.062,0.000
1621214934.324,-28.809,-22.949,-39.062,-22.461,0.000
1621214934.328,-32.715,-19.531,-38.574,-24.902,0.000
1621214934.332,-52.734,-23.438,-41.504,-41.016,0.000
1621214934.336,-50.781,-25.391,-44.922,-57.617,0.000
1621214934.340,-51.758,-22.949,-34.668,-59.082,0.000
1621214934.343,-62.012,-16.113,-26.367,-68.359,0.000
1621214934.347,-77.637,-11.230,-20.996,-88.379,0.000
1621214934.351,-98.633,-18.066,-11.230,-97.168,0.000
1621214934.355,-123.047,-20.508,-18.555,-114.746,0.000
1621214934.359,-149.902,-19.043,-22.949,-139.160,0.000
1621214934.363,-166.504,-23.438,-28.809,-159.668,0.000
1621214934.367,-168.457,-21.973,-26.367,-178.223,0.000
1621214934.371,-180.176,-18.066,-16.602,-184.082,0.000
1621214934.375,-190.430,-21.973,-24.902,-171.387,0.000
1621214934.379,-195.801,-21.484,-30.762,-188.965,0.000
1621214934.382,-198.730,-22.949,-29.297,-205.566,0.000
1621214934.386,-205.566,-28.809,-30.762,-187.012,0.000
1621214934.390,-209.961,-31.738,-20.508,-181.641,0.000
1621214934.394,-196.289,-29.297,-22.949,-178.711,0.000
1621214934.398,-196.289,-32.227,-27.832,-188.965,0.000
1621214934.402,-184.082,-32.227,-14.648,-186.523,0.000
1621214934.406,-176.758,-27.832,-14.160,-177.246,0.000
1621214934.410,-182.617,-26.855,-15.625,-176.758,0.000
1621214934.414,-175.781,-23.926,-9.766,-168.457,0.000
1621214934.418,-163.086,-21.973,-15.625,-140.137,0.000
1621214934.422,-134.277,-20.996,-17.090,-129.883,0.000
1621214934.425,-122.070,-24.414,-23.438,-132.812,0.000
1621214934.429,-118.652,-25.879,-35.156,-122.070,0.000
1621214934.433,-96.680,-25.391,-38.086,-105.957,0.000
1621214934.437,-89.355,-23.926,-35.156,-89.355,0.000
1621214934.441,-77.637,-20.508,-38.574,-76.172,0.000
1621214934.445,-52.734,-20.996,-43.945,-67.383,0.000
1621214934.449,-46.875,-18.066,-42.969,-47.363,0.000
1621214934.453,-41.016,-16.113,-48.828,-28.320,0.000
1621214934.457,-19.043,-20.508,-60.059,-29.297,0.000
1621214934.461,-20.020,-26.855,-62.988,-27.344,0.000
1621214934.465,-29.785,-30.273,-56.641,-12.207,0.000
1621214934.468,-16.113,-31.250,-54.199,-1.465,0.000
1621214934.472,-4.883,-32.227,-47.852,1.465,0.000
1621214934.476,-17.090,-30.762,-67.871,12.207,0.000
1621214934.480,-5.371,-35.645,-64.453,11.230,0.000
1621214934.484,24.414,-35.645,-42.969,4.395,0.000
1621214934.488,9.766,-30.762,-41.504,23.438,0.000
1621214934.492,18.066,-27.344,-42.480,33.691,0.000
1621214934.496,33.203,-23.438,-56.641,25.391,0.000
1621214934.500,35.645,-23.438,-58.105,37.109,0.000
1621214934.504,35.645,-26.367,-47.852,52.734,0.000
1621214934.508,29.297,-28.809,-46.387,38.086,0.000
1621214934.511,52.246,-21.484,-53.711,32.227,0.000
1621214934.515,74.707,-20.508,-56.152,38.574,0.000
1621214934.519,58.594,-23.926,-51.758,39.062,0.000
1621214934.523,26.855,-23.438,-45.410,44.922,0.000
1621214934.527,48.828,-28.809,-46.875,41.504,0.000
1621214934.531,64.453,-24.414,-46.387,35.645,0.000
1621214934.535,43.945,-21.973,-33.203,35.645,0.000
1621214934.539,39.062,-29.785,-35.645,26.367,0.000
1621214934.543,31.250,-31.250,-37.598,33.691,0.000
1621214934.547,38.086,-29.297,-34.668,41.016,0.000
1621214934.550,41.504,-34.668,-44.434,34.180,0.000
1621214934.554,31.250,-36.621,-47.852,41.504,0.000
1621214934.558,19.531,-34.180,-35.645,27.832,0.000
1621214934.562,23.926,-33.203,-34.180,14.648,0.000
1621214934.566,27.344,-32.227,-44.434,22.949,0.000
1621214934.570,28.809,-34.180,-39.551,24.902,0.000
1621214934.574,20.020,-35.156,-41.992,27.832,0.000
1621214934.578,18.066,-37.598,-53.711,27.832,0.000
1621214934.582,29.785,-34.180,-48.340,12.695,0.000
1621214934.586,14.160,-29.297,-48.828,14.648,0.000
1621214934.590,22.949,-27.344,-40.527,33.691,0.000
1621214934.593,13.672,-27.832,-27.344,23.926,0.000
1621214934.597,-3.418,-31.738,-42.969,22.949,0.000
1621214934.601,6.348,-36.621,-42.969,27.344,0.000
1621214934.605,19.043,-32.715,-37.109,21.973,0.000
1621214934.609,30.762,-30.273,-32.227,22.461,0.000
1621214934.613,20.508,-36.133,-19.531,27.344,0.000
1621214934.617,20.020,-33.203,-31.738,22.949,0.000
1621214934.621,27.832,-25.879,-39.551,38.086,0.000
1621214934.625,19.043,-29.785,-40.527,46.387,0.000
1621214934.629,12.695,-33.691,-52.246,18.555,0.000
1621214934.632,5.371,-31.738,-51.270,22.461,0.000
1621214934.636,-6.836,-31.250,-28.809,23.926,0.000
1621214934.640,5.371,-35.156,-8.789,0.488,0.000
1621214934.644,3.906,-39.551,-15.137,7.324,0.000
1621214934.648,-2.441,-36.133,-18.555,17.090,0.000
1621214934.652,16.602,-32.715,-23.926,12.695,0.000
1621214934.656,8.301,-34.180,-41.992,10.742,0.000
1621214934.660,-18.555,-38.574,-46.875,-2.441,0.000
1621214934.664,-14.648,-40.039,-50.781,-4.883,0.000
1621214934.668,20.996,-31.250,-45.898,4.883,0.000
1621214934.672,18.066,-28.809,-31.738,4.395,0.000
1621214934.675,2.441,-29.297,-28.809,-1.465,0.000
1621214934.679,-13.672,-30.762,-31.738,-4.883,0.000
1621214934.683,-8.789,-36.621,-30.273,-2.441,0.000
1621214934.687,17.090,-32.227,-30.273,10.742,0.000
1621214934.691,12.695,-27.832,-33.203,6.836,0.000
1621214934.695,-8.301,-35.156,-32.715,-11.230,0.000
1621214934.699,-15.625,-37.598,-32.715,12.207,0.000
1621214934.703,-13.184,-32.227,-31.738,1.953,0.000
1621214934.707,-7.812,-37.598,-36.133,-23.926,0.000
1621214934.711,-1.953,-41.016,-42.969,-6.348,0.000
1621214934.715,-2.930,-40.039,-34.668,-3.906,0.000
1621214934.718,-14.160,-40.527,-42.969,-6.348,0.000
1621214934.722,-23.438,-41.016,-49.316,-5.859,0.000
1621214934.726,-16.113,-43.945,-39.551,-19.043,0.000
1621214934.730,-13.184,-40.039,-31.250,-14.648,0.000
1621214934.734,-19.531,-36.133,-30.762,-1.953,0.000
1621214934.738,-8.301,-37.109,-28.320,-13.672,0.000
1621214934.742,-11.719,-36.133,-30.762,-19.531,0.000
1621214934.746,-27.344,-37.109,-53.223,-16.113,0.000
1621214934.750,-28.809,-36.133,-33.203,-5.859,0.000
1621214934.754,-21.484,-36.133,-3.906,-4.883,0.000
1621214934.757,0.488,-33.203,-10.742,-4.395,0.000
1621214934.761,-7.324,-31.250,-29.297,-14.160,0.000
1621214934.765,-14.160,-34.180,-33.203,-29.785,0.000
1621214934.769,-13.672,-35.645,-33.203,-10.742,0.000
1621214934.773,-34.180,-37.598,-32.227,-0.488,0.000
1621214934.777,-29.297,-40.527,-32.715,-18.066,0.000
1621214934.781,-3.418,-32.715,-41.016,-28.809,0.000
1621214934.785,-8.301,-34.180,-46.387,-35.645,0.000
1621214934.789,-13.184,-37.598,-39.551,-10.742,0.000
1621214934.793,-11.230,-35.645,-37.109,-11.719,0.000
1621214934.797,-20.508,-39.551,-37.598,-43.457,0.000
1621214934.800,-11.719,-42.480,-27.832,-16.602,0.000
1621214934.804,-15.137,-38.574,-35.156,-9.277,0.000
1621214934.808,-41.992,-35.645,-42.969,-25.391,0.000
1621214934.812,-40.039,-40.527,-34.668,-10.254,0.000
1621214934.816,-17.090,-44.434,-29.785,-7.324,0.000
1621214934.820,-8.789,-46.875,-34.180,-28.320,0.000
1621214934.824,-36.133,-46.875,-33.691,-36.133,0.000
1621214934.828,-54.688,-46.387,-32.715,-32.715,0.000
1621214934.832,-17.578,-40.527,-29.297,-24.414,0.000
1621214934.836,-3.418,-32.715,-27.832,-17.090,0.000
1621214934.840,-29.785,-36.133,-40.039,-0.488,0.000
1621214934.843,-33.203,-41.992,-36.133,0.488,0.000
1621214934.847,-40.039,-43.457,-34.668,-25.391,0.000
1621214934.851,-28.809,-44.434,-48.828,-23.438,0.000
1621214934.855,-22.949,-43.457,-43.945,-14.160,0.000
1621214934.859,-30.273,-41.016,-32.715,-33.203,0.000
1621214934.863,-39.062,-36.621,-28.320,-38.086,0.000
1621214934.867,-30.762,-38.574,-28.809,-28.320,0.000
1621214934.871,-25.391,-39.062,-34.180,-25.391,0.000
1621214934.875,-46.387,-41.992,-44.434,-22.949,0.000
1621214934.879,-74.219,-46.875,-49.316,-31.738,0.000
1621214934.882,-68.848,-43.457,-31.250,-58.105,0.000
1621214934.886,-30.273,-39.551,-31.738,-52.246,0.000
1621214934.890,-8.789,-34.180,-28.809,-25.391,0.000
1621214934.894,-12.207,-30.762,-14.648,-10.254,0.000
1621214934.898,-32.715,-27.832,-42.480,-34.668,0.000
1621214934.902,-41.504,-26.855,-42.480,-21.973,0.000
1621214934.906,-30.762,-33.203,-20.508,2.441,0.000
1621214934.910,-17.578,-38.574,-38.086,-32.715,0.000
1621214934.914,-35.156,-39.551,-41.992,-42.480,0.000
1621214934.918,-34.668,-35.156,-24.414,-20.508,0.000
1621214934.922,-28.809,-31.250,-25.391,-36.133,0.000
1621214934.925,-37.598,-30.273,-24.414,-39.062,0.000
1621214934.929,-34.668,-29.785,-26.855,-18.066,0.000
1621214934.933,-25.879,-31.250,-34.180,-38.086,0.000
1621214934.937,-29.785,-33.203,-31.738,-43.457,0.000
1621214934.941,-34.180,-29.785,-30.762,-46.875,0.000
1621214934.945,-20.020,-26.367,-34.180,-35.645,0.000
1621214934.949,-17.578,-31.738,-40.039,-40.039,0.000
1621214934.953,-15.137,-32.227,-36.621,-38.574,0.000
1621214934.957,-0.977,-27.832,-30.273,-19.043,0.000
1621214934.961,-33.203,-30.273,-36.621,-36.133,0.000
1621214934.964,-42.969,-32.715,-31.250,-31.738,0.000
1621214934.968,-37.109,-32.227,-29.785,-21.484,0.000
1621214934.972,-38.086,-30.273,-30.273,-12.695,0.000
1621214934.976,-51.758,-28.809,-27.344,-9.277,0.000
1621214934.980,-49.316,-30.762,-30.762,-29.297,0.000
1621214934.984,-39.062,-31.250,-31.738,-35.645,0.000
1621214934.988,-56.152,-24.414,-27.832,-41.504,0.000
1621214934.992,-40.039,-27.344,-33.203,-29.297,0.000
1621214934.996,-35.645,-35.645,-34.180,-24.902,0.000
1621214935.000,-38.086,-34.668,-34.668,-24.414,0.000
1621214935.004,-31.738,-34.668,-35.645,-37.109,0.000
1621214935.007,-35.645,-34.668,-37.109,-48.340,0.000
1621214935.011,-33.691,-35.156,-40.039,-30.762,0.000
1621214935.015,-51.758,-38.574,-39.062,-30.762,0.000
1621214935.019,-62.988,-39.551,-42.969,-38.086,0.000
1621214935.023,-44.434,-37.109,-46.875,-41.016,0.000
1621214935.027,-24.902,-34.668,-41.992,-31.250,0.000
1621214935.031,-21.484,-33.203,-40.527,-28.809,0.000
1621214935.035,-38.574,-30.273,-46.875,-34.668,0.000
1621214935.039,-39.062,-32.227,-42.480,-25.879,0.000
1621214935.043,-25.879,-34.180,-32.227,-29.297,0.000
1621214935.047,-46.875,-40.039,-30.762,-41.016,0.000
1621214935.050,-51.270,-45.898,-42.480,-36.133,0.000
1621214935.054,10.254,-25.879,-52.246,-37.598,0.000
1621214935.058,11.230,-24.414,-41.504,-23.438,0.000
1621214935.062,-21.973,-40.527,-29.785,-17.090,0.000
1621214935.066,-24.902,-35.645,-28.809,-21.973,0.000
1621214935.070,-23.926,-29.297,-33.203,-17.090,0.000
1621214935.074,0.977,-28.320,-28.320,-19.043,0.000
1621214935.078,-9.766,-26.855,-20.996,-20.020,0.000
1621214935.082,-34.180,-25.391,-29.297,-15.137,0.000
1621214935.086,-22.461,-27.344,-34.180,-19.043,0.000
1621214935.089,-26.855,-30.273,-39.062,-52.734,0.000
1621214935.093,-20.996,-27.344,-36.133,-67.871,0.000
1621214935.097,-23.438,-30.273,-27.832,-39.551,0.000
1621214935.101,-22.949,-39.551,-22.949,-26.367,0.000
1621214935.105,-25.391,-39.551,-24.414,-44.434,0.000
1621214935.109,-20.508,-37.109,-30.273,-46.875,0.000
1621214935.113,-11.230,-30.762,-33.203,-39.062,0.000
1621214935.117,0.000,-27.832,-38.574,-30.273,0.000
1621214935.121,19.043,-32.227,-34.180,-25.879,0.000
1621214935.125,-19.043,-34.180,-32.715,-45.410,0.000
1621214935.129,-68.848,-36.621,-35.156,-44.434,0.000
1621214935.132,-55.664,-36.621,-37.109,-46.875,0.000
1621214935.136,-17.090,-35.156,-32.715,-45.410,0.000
1621214935.140,-19.531,-36.621,-28.320,-29.297,0.000
1621214935.144,-32.715,-35.645,-48.340,-40.039,0.000
1621214935.148,-24.902,-34.668,-57.129,-49.316,0.000
1621214935.152,-4.395,-37.598,-41.992,-27.832,0.000
1621214935.156,-14.648,-45.410,-41.016,-32.715,0.000
1621214935.160,-12.695,-31.250,-40.527,-50.781,0.000
1621214935.164,-15.137,-24.414,-50.293,-54.688,0.000
1621214935.168,-22.949,-37.598,-59.082,-37.109,0.000
1621214935.172,-17.090,-37.109,-42.969,-30.273,0.000
1621214935.175,-38.086,-39.551,-31.250,-50.293,0.000
1621214935.179,-75.684,-40.527,-25.879,-63.965,0.000
1621214935.183,-57.129,-41.992,-32.715,-51.270,0.000
1621214935.187,-19.531,-56.152,-30.273,-41.504,0.000
1621214935.191,-18.555,-53.223,-19.531,-59.082,0.000
1621214935.195,-21.484,-55.176,-22.461,-34.668,0.000
1621214935.199,-30.762,-55.176,-37.109,-20.020,0.000
1621214935.203,-46.875,-41.504,-19.531,-44.434,0.000
1621214935.207,-7.812,-39.551,-25.391,-21.973,0.000
1621214935.211,13.672,-57.617,-36.621,-1.953,0.000
1621214935.215,-12.695,-55.176,-21.973,-27.344,0.000
1621214935.218,-6.348,-49.316,-39.551,-24.414,0.000
1621214935.222,-2.441,-57.129,-47.852,-23.926,0.000
1621214935.226,-11.230,-46.387,-33.691,-21.973,0.000
1621214935.230,-33.691,-45.898,-21.973,-34.180,0.000
1621214935.234,-25.391,-45.898,-30.273,-30.273,0.000
1621214935.238,-35.645,-40.527,-37.598,-42.480,0.000
1621214935.242,-76.172,-42.969,-28.809,-63.965,0.000
1621214935.246,-44.434,-40.527,-37.598,-54.199,0.000
1621214935.250,-19.531,-39.062,-38.086,-36.133,0.000
1621214935.254,-46.875,-46.387,-32.715,-44.922,0.000
1621214935.257,-41.992,-46.875,-27.832,-45.410,0.000
1621214935.261,-44.922,-36.621,-23.926,-54.199,0.000
1621214935.265,-69.336,-38.574,-19.531,-72.266,0.000
1621214935.269,-65.918,-42.969,-15.625,-56.641,0.000
1621214935.273,-95.215,-39.551,-14.648,-82.031,0.000
1621214935.277,-115.234,-38.086,-13.672,-114.746,0.000
1621214935.281,-112.793,-36.621,-18.555,-117.188,0.000
1621214935.285,-139.160,-37.598,-9.766,-111.328,0.000
1621214935.289,-140.137,-34.668,-7.812,-126.465,0.000
1621214935.293,-136.719,-30.273,-18.555,-149.902,0.000
1621214935.297,-148.438,-33.691,-23.438,-128.906,0.000
1621214935.300,-169.922,-23.438,-60.059,-137.207,0.000
1621214935.304,-200.195,-24.902,-46.875,-178.711,0.000
1621214935.308,-187.500,-38.086,10.742,-183.105,0.000
1621214935.312,-167.480,-32.227,28.320,-161.133,0.000
1621214935.316,-182.129,-30.762,3.418,-161.133,0.000
1621214935.320,-195.801,-38.574,-35.156,-191.895,0.000
1621214935.324,-161.133,-48.340,-27.344,-170.410,0.000
1621214935.328,-159.668,-42.480,2.930,-152.832,0.000
1621214935.332,-166.504,-39.551,2.930,-156.738,0.000
1621214935.336,-152.832,-33.691,-22.461,-135.742,0.000
1621214935.339,-147.461,-30.273,-45.410,-155.273,0.000
1621214935.343,-133.301,-35.156,-32.715,-148.926,0.000
1621214935.347,-109.863,-36.621,-16.602,-90.820,0.000
1621214935.351,-97.656,-37.598,-6.836,-85.449,0.000
1621214935.355,-103.027,-33.203,-9.766,-88.867,0.000
1621214935.359,-96.191,-34.668,-27.344,-73.730,0.000
1621214935.363,-61.523,-31.250,-29.297,-83.984,0.000
1621214935.367,-19.531,-20.996,-34.180,-51.270,0.000
1621214935.371,-7.324,-21.973,-35.156,-13.672,0.000
1621214935.375,-40.527,-20.996,-23.438,-35.156,0.000
1621214935.379,-17.578,-18.555,-39.062,-16.602,0.000
1621214935.382,14.648,-21.973,-65.430,14.160,0.000
1621214935.386,1.953,-23.926,-67.871,14.160,0.000
1621214935.390,-0.488,-18.066,-50.293,3.418,0.000
1621214935.394,21.484,-18.066,-41.992,9.766,0.000
1621214935.398,39.551,-21.484,-42.480,43.457,0.000
1621214935.402,35.645,-16.602,-50.781,40.527,0.000
1621214935.406,38.086,-21.973,-56.641,45.898,0.000
1621214935.410,32.227,-23.438,-50.293,32.227,0.000
1621214935.414,33.203,-26.855,-55.176,22.461,0.000
1621214935.418,41.504,-24.902,-53.711,45.410,0.000
1621214935.422,41.016,-16.602,-49.316,29.297,0.000
1621214935.425,47.852,-18.555,-50.781,21.973,0.000
1621214935.429,41.504,-22.949,-55.664,37.598,0.000
1621214935.433,34.180,-20.996,-56.641,38.086,0.000
1621214935.437,36.133,-21.484,-61.523,37.109,0.000
1621214935.441,41.992,-19.531,-70.312,35.156,0.000
1621214935.445,50.293,-24.414,-49.316,37.109,0.000
1621214935.449,53.223,-32.227,-33.691,41.016,0.000
1621214935.453,51.758,-24.414,-37.109,31.738,0.000
1621214935.457,20.996,-32.227,-42.969,28.809,0.000
1621214935.461,7.324,-34.668,-47.852,20.020,0.000
1621214935.464,58.105,-33.691,-46.387,36.621,0.000
1621214935.468,65.918,-33.203,-42.969,50.781,0.000
1621214935.472,37.109,-18.555,-42.480,25.391,0.000
1621214935.476,52.734,-29.297,-54.688,34.180,0.000
1621214935.480,55.664,-38.086,-47.852,27.832,0.000
1621214935.484,37.598,-34.668,-54.688,8.301,0.000
1621214935.488,36.621,-25.391,-77.637,27.832,0.000
1621214935.492,64.453,-29.297,-58.105,49.805,0.000
1621214935.496,69.336,-32.227,-32.227,39.551,0.000
1621214935.500,46.875,-20.508,-28.320,17.090,0.000
1621214935.504,44.922,-23.438,-29.785,29.785,0.000
1621214935.507,61.523,-28.320,-26.367,53.223,0.000
1621214935.511,64.453,-25.879,-27.832,53.711,0.000
1621214935.515,50.781,-29.297,-54.199,37.109,0.000
1621214935.519,34.668,-23.438,-64.453,31.738,0.000
1621214935.523,49.805,-20.996,-42.969,50.781,0.000
1621214935.527,60.547,-20.996,-43.457,26.855,0.000
1621214935.531,33.203,-23.438,-48.828,8.301,0.000
1621214935.535,36.621,-22.461,-39.062,26.367,0.000
1621214935.539,53.711,-21.973,-34.180,30.273,0.000
1621214935.543,34.180,-28.809,-45.898,19.043,0.000
1621214935.547,13.184,-27.344,-62.012,2.930,0.000
1621214935.550,14.160,-25.391,-56.641,15.137,0.000
1621214935.554,27.344,-32.227,-42.969,1.953,0.000
1621214935.558,12.207,-33.203,-31.250,-6.836,0.000
1621214935.562,14.160,-33.691,-42.969,4.883,0.000
1621214935.566,37.109,-36.133,-58.105,2.441,0.000
1621214935.570,23.926,-32.227,-40.527,4.883,0.000
1621214935.574,6.348,-29.785,-40.039,6.348,0.000
1621214935.578,7.812,-36.133,-56.641,-6.836,0.000
1621214935.582,18.555,-41.992,-50.293,6.348,0.000
1621214935.586,38.086,-34.668,-26.855,14.648,0.000
1621214935.589,22.949,-30.762,-33.203,0.000,0.000
1621214935.593,0.000,-41.016,-50.781,-21.973,0.000
1621214935.597,28.809,-38.086,-49.316,-16.113,0.000
1621214935.601,29.297,-30.273,-35.645,12.695,0.000
1621214935.605,-4.883,-36.133,-34.180,19.043,0.000
1621214935.609,3.418,-37.109,-35.645,16.113,0.000
1621214935.613,23.926,-34.668,-37.109,6.348,0.000
1621214935.617,9.766,-30.273,-44.434,33.203,0.000
1621214935.621,-7.324,-30.762,-45.410,8.789,0.000
1621214935.625,-22.461,-28.320,-46.387,-20.996,0.000
1621214935.629,-21.973,-27.832,-49.805,-4.883,0.000
1621214935.632,3.906,-24.414,-53.223,-23.926,0.000
1621214935.636,6.348,-21.484,-53.223,-36.133,0.000
1621214935.640,-27.344,-25.879,-41.504,-32.715,0.000
1621214935.644,-29.785,-23.438,-52.734,-45.410,0.000
1621214935.648,-10.254,-20.020,-62.988,-28.320,0.000
1621214935.652,-38.574,-23.438,-49.316,-24.902,0.000
1621214935.656,-27.832,-29.297,-55.664,-48.340,0.000
1621214935.660,3.906,-27.832,-72.754,-40.527,0.000
1621214935.664,-9.277,-27.344,-68.848,-18.555,0.000
1621214935.668,-26.367,-22.461,-44.434,-17.578,0.000
1621214935.672,-23.438,-21.484,-33.203,-1.953,0.000
1621214935.675,-18.066,-25.391,-41.016,-5.371,0.000
1621214935.679,1.465,-22.461,-47.852,-24.414,0.000
1621214935.683,2.930,-19.531,-41.016,-27.344,0.000
1621214935.687,-6.836,-21.484,-37.598,-11.719,0.000
1621214935.691,10.742,-22.461,-46.387,5.859,0.000
1621214935.695,0.977,-22.949,-52.246,-1.953,0.000
1621214935.699,-9.277,-27.344,-50.293,-15.625,0.000
1621214935.703,-19.043,-23.926,-27.832,-11.230,0.000
1621214935.707,-20.508,-21.484,-13.184,-13.184,0.000
1621214935.711,1.953,-22.949,-24.902,-26.367,0.000
1621214935.714,0.977,-26.367,-28.320,-32.715,0.000
1621214935.718,-25.391,-24.902,-37.109,-31.738,0.000
1621214935.722,-29.785,-21.973,-43.457,-29.297,0.000
1621214935.726,-23.438,-22.461,-50.293,-50.293,0.000
1621214935.730,-19.531,-27.832,-48.828,-26.855,0.000
1621214935.734,-8.789,-34.668,-38.574,17.090,0.000
1621214935.738,2.930,-30.273,-52.734,-2.930,0.000
1621214935.742,-7.812,-31.250,-56.641,-24.414,0.000
1621214935.746,-15.137,-32.227,-45.410,-24.902,0.000
1621214935.750,-18.066,-26.367,-38.086,-3.418,0.000
1621214935.754,-19.043,-25.391,-34.668,0.488,0.000
1621214935.757,-2.441,-21.973,-47.363,-10.254,0.000
1621214935.761,-7.812,-27.832,-36.133,-19.531,0.000
1621214935.765,-28.809,-32.715,-34.668,-20.508,0.000
1621214935.769,-20.508,-27.344,-34.180,-6.348,0.000
1621214935.773,-11.230,-30.273,-23.438,5.371,0.000
1621214935.777,-6.348,-28.320,-51.758,1.465,0.000
1621214935.781,3.906,-22.461,-105.957,-7.812,0.000
1621214935.785,-7.812,-18.066,-91.309,-12.207,0.000
1621214935.789,-15.137,-24.414,-33.203,-27.344,0.000
1621214935.793,-12.695,-30.762,-10.254,-26.367,0.000
1621214935.797,-30.762,-31.738,-37.598,-33.691,0.000
1621214935.800,-18.555,-24.414,-71.289,-3.906,0.000
1621214935.804,7.812,-20.020,-131.836,0.000,0.000
1621214935.808,1.465,-32.227,-101.562,-41.504,0.000
1621214935.812,-29.297,-43.945,34.180,-26.855,0.000
1621214935.816,-33.691,-41.504,43.945,-20.020,0.000
1621214935.820,-11.230,-39.062,12.207,-26.855,0.000
1621214935.824,-11.719,-40.527,-20.020,-10.742,0.000
1621214935.828,-11.719,-36.621,-22.461,1.465,0.000
1621214935.832,-6.836,-34.180,-58.105,1.953,0.000
1621214935.836,-16.113,-36.621,-139.160,-26.855,0.000
1621214935.839,-26.855,-36.621,-71.777,-35.156,0.000
1621214935.843,-35.645,-37.109,23.926,-14.160,0.000
1621214935.847,-21.484,-39.062,12.207,-9.766,0.000
1621214935.851,-8.789,-31.738,-13.672,-10.254,0.000
1621214935.855,-8.789,-29.297,-25.391,-12.207,0.000
1621214935.859,0.977,-31.738,-41.992,0.000,0.000
1621214935.863,3.418,-27.344,-40.527,-3.906,0.000
1621214935.867,-25.879,-28.320,-64.941,-13.672,0.000
1621214935.871,-8.301,-26.367,-81.543,0.488,0.000
1621214935.875,-2.441,-24.902,-48.828,-11.719,0.000
1621214935.879,-27.832,-31.250,-40.039,-14.648,0.000
1621214935.882,-9.277,-27.832,-65.430,1.953,0.000
1621214935.886,1.953,-24.414,-71.777,-3.418,0.000
1621214935.890,-17.578,-29.785,-38.086,-16.113,0.000
1621214935.894,-22.461,-24.902,-23.438,-35.156,0.000
1621214935.898,-16.113,-26.367,-19.043,-14.648,0.000
1621214935.902,-12.695,-32.715,-27.832,2.441,0.000
1621214935.906,-11.230,-28.809,-38.574,-3.418,0.000
1621214935.910,-26.855,-30.762,-38.574,-28.320,0.000
1621214935.914,-19.531,-33.691,-44.434,-29.785,0.000
1621214935.918,1.953,-31.250,-49.805,-4.395,0.000
1621214935.922,-2.930,-33.691,-34.180,2.930,0.000
1621214935.925,-10.254,-31.250,-27.832,14.160,0.000
1621214935.929,-12.695,-29.297,-42.480,-12.207,0.000
1621214935.933,-22.949,-36.621,-47.363,-18.066,0.000
1621214935.937,-26.855,-32.227,-41.016,9.277,0.000
1621214935.941,-15.625,-30.762,-38.574,21.973,0.000
1621214935.945,-11.230,-36.133,-37.109,1.953,0.000
1621214935.949,-21.973,-31.250,-38.574,-16.602,0.000
1621214935.953,-21.484,-32.715,-42.969,-11.719,0.000
1621214935.957,-44.434,-41.992,-44.922,-1.465,0.000
1621214935.961,-46.387,-36.621,-53.223,-4.883,0.000
1621214935.964,-26.367,-29.785,-39.551,-3.418,0.000
1621214935.968,-28.320,-25.879,-27.832,-16.113,0.000
1621214935.972,-12.695,-25.879,-27.832,-9.277,0.000
1621214935.976,-10.254,-28.320,-32.227,-13.672,0.000
1621214935.980,-26.855,-20.996,-39.062,-36.621,0.000
1621214935.984,-28.320,-22.461,-36.621,-32.715,0.000
1621214935.988,-11.230,-29.297,-32.227,-19.531,0.000
1621214935.992,-22.949,-28.320,-41.992,-17.090,0.000
1621214935.996,-27.344,-29.297,-48.340,-20.020,0.000
1621214936.000,-6.836,-30.762,-45.410,-12.695,0.000
1621214936.004,-20.508,-33.203,-34.668,-21.484,0.000
1621214936.007,-26.367,-35.645,-25.391,-28.809,0.000
1621214936.011,-31.738,-32.715,-24.902,-33.691,0.000
1621214936.015,-33.203,-32.227,-34.668,-20.996,0.000
1621214936.019,-15.625,-36.133,-42.480,10.254,0.000
1621214936.023,-12.207,-34.668,-39.551,-2.441,0.000
1621214936.027,-22.949,-35.156,-33.691,-11.719,0.000
1621214936.031,-16.602,-30.762,-53.711,-12.695,0.000
1621214936.035,3.418,-22.949,-59.570,-21.484,0.000
1621214936.039,2.441,-23.926,-25.879,-5.371,0.000
1621214936.043,-14.160,-26.367,-20.996,-15.625,0.000
1621214936.046,-22.461,-28.320,-28.809,-14.648,0.000
1621214936.050,-11.719,-29.785,-41.016,4.395,0.000
1621214936.054,-14.648,-30.762,-59.082,-11.230,0.000
1621214936.058,-12.695,-28.809,-41.992,-13.672,0.000
1621214936.062,-11.230,-26.367,-18.555,-6.836,0.000
1621214936.066,-9.277,-25.391,-30.762,-5.859,0.000
1621214936.070,-5.859,-25.391,-30.273,2.441,0.000
1621214936.074,-15.625,-29.297,-28.809,-13.184,0.000
1621214936.078,-12.207,-29.785,-28.809,-17.090,0.000
1621214936.082,-18.555,-28.320,-34.180,-6.348,0.000
1621214936.086,-25.391,-25.879,-54.688,-13.672,0.000
1621214936.089,-22.461,-28.809,-52.734,-12.695,0.000
1621214936.093,-36.133,-37.109,-26.855,-21.973,0.000
1621214936.097,-50.781,-41.504,-28.320,-26.855,0.000
1621214936.101,-33.691,-39.551,-54.199,-15.625,0.000
1621214936.105,-17.578,-36.621,-34.180,3.906,0.000
1621214936.109,-21.973,-35.156,-23.438,0.000,0.000
1621214936.113,-20.508,-32.715,-41.504,-20.020,0.000
1621214936.117,-25.391,-33.691,-30.762,-18.555,0.000
1621214936.121,-24.902,-32.227,-20.996,-26.367,0.000
1621214936.125,-25.391,-32.227,-17.578,-36.621,0.000
1621214936.129,-29.297,-37.109,-25.391,-22.461,0.000
1621214936.132,-19.043,-32.227,-41.016,-12.695,0.000
1621214936.136,-6.836,-27.344,-54.199,2.930,0.000
1621214936.140,-0.977,-24.414,-79.590,10.254,0.000
1621214936.144,-6.348,-28.809,-78.613,-15.625,0.000
1621214936.148,-15.625,-34.180,-29.297,-23.926,0.000
1621214936.152,-15.137,-28.809,4.395,-10.254,0.000
1621214936.156,-16.113,-28.809,-8.301,-8.301,0.000
1621214936.160,-9.766,-29.297,-18.555,-17.578,0.000
1621214936.164,-9.277,-32.227,-15.137,-22.949,0.000
1621214936.168,-23.926,-40.039,-30.273,-13.672,0.000
1621214936.171,-20.508,-33.691,-38.086,-19.531,0.000
1621214936.175,-18.555,-30.273,-43.945,-39.062,0.000
1621214936.179,-37.598,-36.621,-48.828,-40.039,0.000
1621214936.183,-40.527,-29.785,-41.016,-18.555,0.000
1621214936.187,-29.785,-27.832,-39.551,-17.578,0.000
1621214936.191,-23.438,-31.738,-54.199,-20.996,0.000
1621214936.195,-27.344,-32.227,-64.941,-13.184,0.000
1621214936.199,-25.391,-31.250,-51.758,-8.789,0.000
1621214936.203,-23.438,-27.344,-40.527,-9.277,0.000
1621214936.207,-42.480,-30.273,-57.617,-11.719,0.000
1621214936.211,-45.410,-34.668,-48.828,-17.578,0.000
1621214936.214,-28.320,-32.715,-24.414,-25.391,0.000
1621214936.218,-21.484,-32.715,-25.879,-26.367,0.000
1621214936.222,-30.273,-34.668,-26.855,-22.461,0.000
1621214936.226,-40.039,-37.598,-17.578,-21.973,0.000
1621214936.230,-38.086,-41.016,-46.387,-22.949,0.000
1621214936.234,-39.062,-40.039,-70.801,-18.066,0.000
1621214936.238,-42.969,-35.156,-43.945,-29.297,0.000
1621214936.242,-31.738,-31.250,-36.621,-25.391,0.000
1621214936.246,-26.855,-26.855,-43.945,-27.344,0.000
1621214936.250,-21.484,-26.855,-37.598,-33.691,0.000
1621214936.254,-27.344,-31.738,-32.227,-22.461,0.000
1621214936.257,-32.715,-33.203,-24.414,-15.625,0.000
1621214936.261,-18.555,-36.621,-20.020,-10.254,0.000
1621214936.265,-23.926,-38.086,-16.113,-5.859,0.000
1621214936.269,-37.109,-42.480,-12.207,1.465,0.000
1621214936.273,-44.434,-49.316,-15.137,-3.418,0.000
1621214936.277,-35.645,-52.734,-22.949,-3.906,0.000
1621214936.281,-31.250,-54.688,-18.066,-0.977,0.000
1621214936.285,-48.340,-54.199,-9.277,0.000,0.000
1621214936.289,-49.805,-59.082,-20.020,-1.953,0.000
1621214936.293,-26.855,-60.059,-20.996,-14.160,0.000
1621214936.297,-17.578,-54.688,-21.973,-15.137,0.000
1621214936.300,-9.277,-54.199,-21.484,4.883,0.000
1621214936.304,-7.812,-54.688,-3.906,-3.906,0.000
1621214936.308,-30.273,-49.805,-6.348,-20.020,0.000
1621214936.312,-30.762,-41.992,-19.531,-23.438,0.000
1621214936.316,-17.578,-43.945,-20.508,-10.254,0.000
1621214936.320,-19.043,-50.293,-22.949,10.254,0.000
1621214936.324,-30.762,-49.316,-29.297,-3.418,0.000
1621214936.328,-38.086,-48.340,-24.902,-13.672,0.000
1621214936.332,-23.438,-42.480,-28.809,-11.719,0.000
1621214936.336,-25.391,-41.504,-36.621,-22.949,0.000
1621214936.339,-21.973,-37.598,-43.457,-25.879,0.000
1621214936.343,-37.109,-37.109,-49.316,-16.602,0.000
1621214936.347,-39.551,-40.527,-37.598,-18.066,0.000
1621214936.351,-11.230,-39.062,-24.902,-8.789,0.000
1621214936.355,-24.414,-39.062,-19.531,3.418,0.000
1621214936.359,-40.527,-36.133,-16.113,-16.602,0.000
1621214936.363,-39.551,-39.551,-43.945,-30.762,0.000
1621214936.367,-25.879,-39.551,-69.824,-22.461,0.000
1621214936.371,-29.785,-33.691,-39.551,-23.926,0.000
1621214936.375,-41.504,-29.785,-24.414,-22.949,0.000
1621214936.379,-22.949,-29.785,-30.273,-20.996,0.000
1621214936.382,-14.160,-30.762,-27.832,-17.090,0.000
1621214936.386,-29.297,-29.785,-28.320,-6.348,0.000
1621214936.390,-14.160,-31.738,-37.598,-12.207,0.000
1621214936.394,-9.277,-32.227,-50.293,-9.766,0.000
1621214936.398,-30.273,-34.668,-52.734,-7.812,0.000
1621214936.402,-24.902,-37.109,-42.969,-19.531,0.000
1621214936.406,-37.109,-38.574,-45.410,-20.996,0.000
1621214936.410,-48.340,-41.504,-59.570,-24.902,0.000
1621214936.414,-29.785,-35.156,-58.594,-20.508,0.000
1621214936.418,-22.949,-33.203,-42.969,-15.625,0.000
1621214936.421,-20.020,-35.645,-36.133,-21.484,0.000
1621214936.425,-30.762,-39.062,-36.133,-12.695,0.000
1621214936.429,-29.297,-40.039,-39.551,-19.043,0.000
1621214936.433,-24.414,-37.598,-39.062,-29.297,0.000
1621214936.437,-46.387,-31.738,-39.551,-28.320,0.000
1621214936.441,-29.785,-31.738,-49.316,-20.996,0.000
1621214936.445,-18.066,-41.504,-47.852,-6.836,0.000
1621214936.449,-29.785,-35.156,-37.598,-13.184,0.000
1621214936.453,-24.902,-28.320,-30.273,-12.695,0.000
1621214936.457,-39.062,-31.250,-39.062,-12.207,0.000
1621214936.461,-38.086,-30.762,-40.527,-18.555,0.000
1621214936.464,-34.180,-32.227,-36.133,-16.113,0.000
1621214936.468,-25.879,-35.156,-36.621,-15.137,0.000
1621214936.472,-29.297,-31.250,-38.574,-17.090,0.000
1621214936.476,-51.270,-35.645,-39.062,-28.809,0.000
1621214936.480,-26.367,-33.203,-43.457,-29.297,0.000
1621214936.484,-11.719,-31.250,-43.457,-7.324,0.000
1621214936.488,-11.230,-33.691,-31.250,-7.324,0.000
1621214936.492,-11.719,-31.250,-30.273,-21.484,0.000
1621214936.496,-20.996,-33.203,-39.551,-23.438,0.000
1621214936.500,-28.809,-31.250,-39.062,-12.207,0.000
1621214936.504,-29.785,-31.738,-41.992,-15.625,0.000
1621214936.507,-24.902,-32.715,-40.527,-31.738,0.000
1621214936.511,-14.648,-27.344,-35.156,-24.414,0.000
1621214936.515,-17.578,-30.273,-40.039,-20.508,0.000
1621214936.519,-21.973,-37.598,-40.039,-12.207,0.000
1621214936.523,-28.809,-35.156,-31.738,-11.230,0.000
1621214936.527,-24.414,-28.809,-24.414,-15.625,0.000
1621214936.531,-22.461,-25.879,-37.598,-8.301,0.000
1621214936.535,-23.438,-27.344,-42.480,-17.090,0.000
1621214936.539,-14.160,-25.391,-30.273,-29.297,0.000
1621214936.543,-16.113,-29.297,-36.621,-28.809,0.000
1621214936.546,-26.855,-28.809,-48.340,-23.438,0.000
1621214936.550,-42.969,-24.902,-49.316,-15.625,0.000
1621214936.554,-34.668,-27.344,-31.738,-8.301,0.000
1621214936.558,-40.039,-29.297,-30.273,-18.066,0.000
1621214936.562,-42.480,-20.020,-35.645,-14.648,0.000
1621214936.566,-33.203,-15.625,-29.297,-10.742,0.000
1621214936.570,-41.016,-22.949,-42.969,-18.066,0.000
1621214936.574,-31.250,-26.367,-45.898,-9.277,0.000
1621214936.578,-20.508,-21.973,-41.992,-3.906,0.000
1621214936.582,-32.715,-18.555,-43.457,-6.348,0.000
1621214936.586,-36.133,-21.973,-47.852,-12.695,0.000
1621214936.589,-42.480,-30.273,-61.035,-26.367,0.000
1621214936.593,-48.340,-37.598,-56.641,-38.086,0.000
1621214936.597,-42.480,-39.551,-45.410,-31.738,0.000
1621214936.601,-42.969,-39.551,-41.504,-27.832,0.000
1621214936.605,-48.828,-37.109,-41.016,-28.809,0.000
1621214936.609,-45.410,-37.598,-38.574,-25.879,0.000
1621214936.613,-36.621,-31.738,-46.875,-22.461,0.000
1621214936.617,-34.668,-26.855,-48.340,-15.625,0.000
1621214936.621,-35.156,-28.809,-44.434,-17.090,0.000
1621214936.625,-29.785,-37.109,-42.480,-26.855,0.000
1621214936.629,-35.645,-38.086,-40.039,-38.086,0.000
1621214936.632,-50.293,-29.297,-47.363,-34.668,0.000
1621214936.636,-38.086,-30.762,-54.688,-21.484,0.000
1621214936.640,-28.809,-32.715,-53.711,-23.926,0.000
1621214936.644,-23.926,-30.273,-38.086,-26.367,0.000
1621214936.648,-20.996,-25.879,-30.273,-25.391,0.000
1621214936.652,-25.391,-24.902,-35.645,-22.949,0.000
1621214936.656,-22.461,-27.832,-37.598,-32.715,0.000
1621214936.660,-31.250,-31.250,-43.945,-34.668,0.000
1621214936.664,-42.969,-34.668,-38.086,-27.832,0.000
1621214936.668,-27.344,-25.879,-31.250,-25.391,0.000
1621214936.671,-28.320,-21.484,-37.598,-16.113,0.000
1621214936.675,-39.551,-20.508,-48.340,-18.555,0.000
1621214936.679,-38.086,-20.508,-46.875,-30.273,0.000
1621214936.683,-31.250,-28.809,-26.367,-16.113,0.000
1621214936.687,-7.812,-21.484,-38.574,-19.043,0.000
1621214936.691,-33.691,-21.973,-47.852,-29.297,0.000
1621214936.695,-48.340,-32.227,-28.809,-23.438,0.000
1621214936.699,-31.250,-27.344,-30.762,-14.648,0.000
1621214936.703,-29.297,-24.414,-42.969,-18.555,0.000
1621214936.707,-44.434,-22.461,-42.480,-32.227,0.000
1621214936.711,-47.363,-21.484,-38.086,-33.203,0.000
1621214936.714,-21.973,-31.250,-36.621,-22.461,0.000
1621214936.718,-31.250,-29.785,-27.832,-30.762,0.000
1621214936.722,-32.227,-27.344,-30.762,-38.574,0.000
1621214936.726,-22.461,-27.832,-34.668,-19.043,0.000
1621214936.730,-37.109,-31.250,-35.156,-16.113,0.000
1621214936.734,-43.945,-35.645,-38.574,-31.738,0.000
1621214936.738,-31.250,-28.809,-37.598,-29.785,0.000
1621214936.742,-18.555,-24.414,-32.715,-15.625,0.000
1621214936.746,-29.785,-24.902,-40.527,-16.602,0.000
1621214936.750,-26.855,-21.973,-49.316,-13.672,0.000
1621214936.753,-24.414,-29.297,-30.273,-7.324,0.000
1621214936.757,-33.203,-30.273,-41.016,-13.184,0.000
1621214936.761,-53.223,-20.996,-40.527,-28.320,0.000
1621214936.765,-49.316,-25.391,-23.926,-41.992,0.000
1621214936.769,-38.574,-26.367,-33.203,-48.340,0.000
1621214936.773,-61.035,-25.879,-32.227,-44.434,0.000
1621214936.777,-78.125,-38.086,-26.367,-54.199,0.000
1621214936.781,-89.355,-33.203,-28.320,-74.219,0.000
1621214936.785,-86.426,-31.738,-27.832,-69.824,0.000
1621214936.789,-99.609,-29.297,-20.996,-83.984,0.000
1621214936.793,-124.512,-18.555,-29.297,-104.492,0.000
1621214936.796,-117.188,-26.855,-31.250,-103.516,0.000
1621214936.800,-124.512,-32.715,-20.508,-115.234,0.000
1621214936.804,-150.879,-26.855,-26.367,-127.441,0.000
1621214936.808,-153.809,-23.438,-34.180,-152.344,0.000
1621214936.812,-165.039,-25.391,-24.902,-165.527,0.000
1621214936.816,-176.758,-30.762,-11.230,-170.410,0.000
1621214936.820,-175.781,-34.180,-23.926,-176.270,0.000
1621214936.824,-206.543,-39.062,-40.039,-180.176,0.000
1621214936.828,-202.148,-37.598,-35.645,-182.617,0.000
1621214936.832,-190.918,-41.504,-34.668,-190.918,0.000
1621214936.836,-209.473,-41.016,-32.227,-193.848,0.000
1621214936.839,-208.008,-39.062,5.859,-170.898,0.000
1621214936.843,-204.590,-47.363,12.695,-180.664,0.000
1621214936.847,-199.707,-40.039,-14.160,-195.801,0.000
1621214936.851,-189.453,-34.668,-8.789,-176.270,0.000
1621214936.855,-179.199,-36.133,-25.879,-147.949,0.000
1621214936.859,-166.992,-37.598,-56.152,-145.996,0.000
1621214936.863,-138.672,-39.062,-43.945,-131.836,0.000
1621214936.867,-140.137,-38.574,-5.371,-110.840,0.000
1621214936.871,-151.367,-34.668,-6.836,-104.492,0.000
1621214936.875,-114.258,-32.227,-15.625,-104.492,0.000
1621214936.879,-91.797,-35.156,-19.531,-96.680,0.000
1621214936.882,-111.328,-40.527,-35.156,-79.102,0.000
1621214936.886,-99.121,-35.645,-39.551,-63.965,0.000
1621214936.890,-43.945,-35.156,-45.898,-42.969,0.000
1621214936.894,-43.457,-39.551,-48.340,-50.293,0.000
1621214936.898,-39.062,-33.691,-31.738,-52.734,0.000
1621214936.902,-19.043,-35.156,-29.297,-20.996,0.000
1621214936.906,-4.883,-29.785,-42.969,-5.371,0.000
1621214936.910,-0.488,-26.855,-76.172,-6.836,0.000
1621214936.914,-9.277,-32.227,-69.336,-0.977,0.000
1621214936.918,-13.184,-34.180,-31.738,3.418,0.000
1621214936.921,-22.461,-31.738,-30.273,3.418,0.000
1621214936.925,7.324,-24.902,-40.527,0.000,0.000
1621214936.929,16.113,-31.250,-45.898,18.555,0.000
1621214936.933,8.301,-40.527,-55.176,34.180,0.000
1621214936.937,20.996,-35.156,-44.434,27.832,0.000
1621214936.941,25.391,-36.621,-35.645,36.133,0.000
1621214936.945,22.461,-36.621,-48.340,47.852,0.000
1621214936.949,20.508,-27.344,-55.176,37.109,0.000
1621214936.953,30.273,-32.227,-60.547,40.527,0.000
1621214936.957,41.504,-35.645,-52.246,48.828,0.000
1621214936.961,48.828,-29.785,-46.875,42.969,0.000
1621214936.964,32.227,-29.297,-48.828,40.039,0.000
1621214936.968,19.043,-28.809,-45.410,48.828,0.000
1621214936.972,40.527,-22.461,-44.922,53.223,0.000
1621214936.976,42.969,-19.043,-43.457,43.457,0.000
1621214936.980,42.480,-20.996,-31.738,43.457,0.000
1621214936.984,35.645,-26.367,-47.363,41.016,0.000
1621214936.988,38.086,-26.855,-67.383,32.715,0.000
1621214936.992,57.617,-20.996,-45.898,35.156,0.000
1621214936.996,42.480,-28.320,-31.250,31.250,0.000
1621214937.000,9.277,-24.902,-41.992,20.508,0.000
1621214937.004,5.859,-17.578,-37.109,21.484,0.000
1621214937.007,27.832,-33.203,-38.086,23.438,0.000
1621214937.011,34.668,-32.715,-42.480,21.484,0.000
1621214937.015,25.879,-24.902,-46.387,18.066,0.000
1621214937.019,3.906,-25.391,-49.805,23.438,0.000
1621214937.023,14.160,-22.461,-47.363,37.598,0.000
1621214937.027,32.227,-17.090,-49.316,40.527,0.000
1621214937.031,28.320,-19.043,-48.340,25.879,0.000
1621214937.035,31.250,-20.508,-41.992,21.973,0.000
1621214937.039,14.160,-15.137,-35.645,23.926,0.000
1621214937.043,30.273,-20.020,-48.340,8.789,0.000
1621214937.046,33.691,-20.020,-42.480,20.020,0.000
1621214937.050,27.832,-22.949,-40.527,31.250,0.000
1621214937.054,30.762,-29.297,-66.406,20.020,0.000
1621214937.058,20.508,-29.297,-54.199,17.578,0.000
1621214937.062,6.348,-29.297,-35.156,11.719,0.000
1621214937.066,18.555,-29.785,-38.086,14.160,0.000
1621214937.070,17.578,-34.180,-42.480,19.043,0.000
1621214937.074,9.277,-28.809,-42.969,15.625,0.000
1621214937.078,3.418,-25.391,-42.480,3.418,0.000
1621214937.082,-10.742,-32.715,-52.246,1.953,0.000
1621214937.086,17.578,-30.762,-47.852,9.766,0.000
1621214937.089,12.207,-29.297,-35.156,4.395,0.000
1621214937.093,0.000,-26.367,-37.598,2.441,0.000
1621214937.097,8.789,-23.926,-37.598,13.672,0.000
1621214937.101,4.883,-28.809,-39.551,11.230,0.000
1621214937.105,12.695,-32.227,-45.410,0.977,0.000
1621214937.109,11.230,-32.227,-53.711,4.883,0.000
1621214937.113,6.836,-35.156,-43.945,11.719,0.000
1621214937.117,17.090,-34.668,-48.340,19.043,0.000
1621214937.121,9.277,-30.273,-61.523,9.277,0.000
1621214937.125,-4.395,-34.180,-30.273,0.000,0.000
1621214937.128,-8.789,-31.738,-14.648,-4.883,0.000
1621214937.132,-13.672,-29.297,-28.320,-3.418,0.000
1621214937.136,-12.695,-35.156,-37.598,0.488,0.000
1621214937.140,-7.812,-30.273,-35.645,-2.441,0.000
1621214937.144,-20.508,-31.250,-34.180,4.395,0.000
1621214937.148,-3.906,-30.762,-35.645,-8.301,0.000
1621214937.152,8.789,-28.320,-37.109,-1.465,0.000
1621214937.156,-8.789,-26.855,-38.086,4.395,0.000
1621214937.160,-13.672,-24.902,-36.133,-6.836,0.000
1621214937.164,-15.625,-20.996,-37.109,-6.836,0.000
1621214937.168,-5.859,-20.996,-36.621,0.977,0.000
1621214937.171,-11.719,-29.785,-34.180,-10.742,0.000
1621214937.175,-11.719,-33.203,-38.574,-20.508,0.000
1621214937.179,11.230,-33.203,-34.668,-1.953,0.000
1621214937.183,7.324,-30.273,-34.180,0.000,0.000
1621214937.187,0.977,-21.973,-42.480,-6.348,0.000
1621214937.191,-2.441,-18.066,-41.504,-9.766,0.000
1621214937.195,-16.113,-20.996,-38.574,1.465,0.000
1621214937.199,-17.090,-23.438,-32.227,9.277,0.000
1621214937.203,-26.367,-25.391,-37.598,-18.555,0.000
1621214937.207,-18.066,-32.715,-34.180,-25.879,0.000
1621214937.211,-16.602,-33.203,-34.668,-21.484,0.000
1621214937.214,-16.602,-34.668,-60.547,-18.555,0.000
1621214937.218,-18.066,-38.086,-45.410,-9.277,0.000
1621214937.222,-25.879,-28.809,-34.180,-12.207,0.000
1621214937.226,-30.762,-25.879,-30.273,-18.555,0.000
1621214937.230,-31.250,-31.738,-38.574,-26.855,0.000
1621214937.234,-27.832,-31.250,-54.688,-22.461,0.000
1621214937.238,-24.414,-31.250,-42.480,-12.695,0.000
1621214937.242,-29.297,-30.273,-32.227,-12.695,0.000
1621214937.246,-32.227,-30.762,-31.250,-18.066,0.000
1621214937.250,-16.113,-25.391,-31.738,-3.418,0.000
1621214937.254,-27.344,-26.855,-39.551,-3.906,0.000
1621214937.257,-31.738,-31.738,-34.668,-14.648,0.000
1621214937.261,-25.391,-32.715,-31.250,-10.254,0.000
1621214937.265,-24.902,-37.109,-39.062,-4.883,0.000
1621214937.269,-16.602,-30.762,-35.645,-16.602,0.000
1621214937.273,-9.277,-24.902,-42.969,-33.203,0.000
1621214937.277,-19.531,-27.832,-44.922,-25.879,0.000
1621214937.281,-40.527,-27.832,-39.551,-17.578,0.000
1621214937.285,-45.898,-28.809,-43.457,-17.090,0.000
1621214937.289,-36.133,-35.645,-47.363,-16.602,0.000
1621214937.293,-37.598,-44.922,-46.875,-24.414,0.000
1621214937.296,-22.461,-41.992,-49.805,-30.273,0.000
1621214937.300,-11.230,-31.250,-41.504,-17.578,0.000
1621214937.304,-19.043,-34.180,-25.391,-8.789,0.000
1621214937.308,-26.855,-42.969,-38.086,-27.344,0.000
1621214937.312,-39.062,-40.039,-57.129,-23.926,0.000
1621214937.316,-31.250,-36.621,-47.363,-18.555,0.000
1621214937.320,-9.766,-39.551,-31.250,-25.879,0.000
1621214937.324,-13.672,-39.551,-35.156,-12.695,0.000
1621214937.328,-17.090,-36.133,-33.691,-7.812,0.000
1621214937.332,-23.926,-35.645,-31.250,-23.926,0.000
1621214937.336,-43.945,-33.691,-46.387,-31.738,0.000
1621214937.339,-45.898,-37.109,-55.664,-30.273,0.000
1621214937.343,-23.926,-40.527,-41.992,-26.367,0.000
1621214937.347,-26.367,-35.156,-27.832,-19.531,0.000
1621214937.351,-37.598,-31.738,-35.645,-3.418,0.000
1621214937.355,-28.809,-33.203,-38.574,3.906,0.000
1621214937.359,-32.715,-34.180,-48.340,-32.227,0.000
1621214937.363,-39.062,-37.598,-56.641,-47.363,0.000
1621214937.367,-33.203,-36.621,-36.133,-17.578,0.000
1621214937.371,-26.367,-32.715,-28.320,-27.832,0.000
1621214937.375,-29.785,-33.203,-34.180,-40.527,0.000
1621214937.379,-44.434,-35.156,-40.039,-33.691,0.000
1621214937.382,-41.992,-39.062,-38.574,-27.832,0.000
1621214937.386,-30.273,-37.109,-41.992,-18.066,0.000
1621214937.390,-29.297,-29.785,-39.551,-28.320,0.000
1621214937.394,-36.621,-28.809,-39.062,-34.668,0.000
1621214937.398,-27.344,-28.809,-50.781,-22.461,0.000
1621214937.402,-20.996,-28.809,-41.016,-10.742,0.000
1621214937.406,-20.020,-33.203,-33.203,-14.160,0.000
1621214937.410,-35.156,-32.715,-41.016,-29.785,0.000
1621214937.414,-32.227,-27.832,-46.387,-28.320,0.000
1621214937.418,-18.066,-26.367,-47.363,-12.207,0.000
1621214937.421,-25.879,-29.785,-50.293,-10.742,0.000
1621214937.425,-23.926,-34.180,-44.922,-18.555,0.000
1621214937.429,-15.625,-37.109,-45.898,-29.297,0.000
1621214937.433,-22.461,-34.180,-41.504,-21.973,0.000
1621214937.437,-31.738,-32.227,-32.227,-10.742,0.000
1621214937.441,-33.691,-33.691,-37.598,-19.043,0.000
1621214937.445,-35.156,-31.250,-39.062,-26.367,0.000
1621214937.449,-34.668,-28.320,-33.203,-16.113,0.000
1621214937.453,-15.625,-26.367,-34.180,-19.043,0.000
1621214937.457,-4.395,-26.855,-41.504,-26.855,0.000
1621214937.461,-1.953,-30.273,-37.109,-28.320,0.000
1621214937.464,-18.555,-25.879,-20.996,-26.367,0.000
1621214937.468,-23.926,-28.320,-39.551,-15.625,0.000
1621214937.472,-31.250,-35.645,-55.176,-23.438,0.000
1621214937.476,-36.133,-34.668,-40.527,-33.691,0.000
1621214937.480,-14.160,-33.203,-33.691,-39.062,0.000
1621214937.484,-23.926,-32.715,-30.273,-34.668,0.000
1621214937.488,-26.855,-31.738,-25.879,-20.996,0.000
1621214937.492,-22.461,-32.227,-29.785,-29.785,0.000
1621214937.496,-30.762,-31.250,-33.203,-37.109,0.000
1621214937.500,-23.926,-28.809,-35.156,-34.180,0.000
1621214937.503,-17.090,-22.461,-39.062,-27.832,0.000
1621214937.507,-27.832,-23.438,-38.574,-40.527,0.000
1621214937.511,-28.809,-28.809,-53.711,-45.410,0.000
1621214937.515,-21.973,-26.855,-43.945,-29.297,0.000
1621214937.519,-29.785,-23.438,-26.855,-23.926,0.000
1621214937.523,-24.414,-24.902,-46.387,-23.438,0.000
1621214937.527,-12.207,-28.320,-45.410,-32.227,0.000
1621214937.531,-17.578,-25.391,-30.762,-28.809,0.000
1621214937.535,-24.414,-29.785,-25.391,-25.391,0.000
1621214937.539,-10.742,-31.250,-28.809,-16.602,0.000
1621214937.543,-11.230,-28.809,-37.109,-21.973,0.000
1621214937.546,-1.465,-26.367,-34.180,-27.832,0.000
1621214937.550,-8.789,-29.785,-37.598,-11.719,0.000
1621214937.554,-36.133,-36.133,-51.758,-9.277,0.000
1621214937.558,-28.809,-31.738,-47.363,-20.020,0.000
1621214937.562,-21.973,-30.273,-33.203,-14.160,0.000
1621214937.566,-21.484,-24.414,-45.898,-18.066,0.000
1621214937.570,-17.090,-24.902,-45.898,-14.160,0.000
1621214937.574,-21.484,-29.297,-31.250,-12.695,0.000
1621214937.578,-22.949,-30.762,-41.504,-25.391,0.000
1621214937.582,-12.207,-32.227,-52.734,-25.391,0.000
1621214937.586,-13.184,-30.762,-44.434,-22.461,0.000
1621214937.589,-15.137,-32.715,-38.086,-16.602,0.000
1621214937.593,-26.855,-31.738,-37.598,-27.832,0.000
1621214937.597,-40.039,-29.785,-35.156,-39.062,0.000
1621214937.601,-39.551,-28.809,-31.738,-29.297,0.000
1621214937.605,-37.598,-29.297,-24.902,-32.715,0.000
1621214937.609,-33.203,-26.367,-37.598,-41.016,0.000
1621214937.613,-35.156,-26.367,-38.086,-40.039,0.000
1621214937.617,-43.457,-33.203,-42.480,-42.480,0.000
1621214937.621,-33.203,-35.156,-42.969,-36.133,0.000
1621214937.625,-15.625,-27.344,-44.434,-36.133,0.000
1621214937.628,-28.320,-28.320,-51.270,-34.180,0.000
1621214937.632,-30.273,-31.738,-37.598,-19.043,0.000
1621214937.636,-24.414,-32.715,-37.598,-11.230,0.000
1621214937.640,-28.809,-35.645,-41.504,-12.207,0.000
1621214937.644,-29.297,-35.645,-41.992,-33.691,0.000
1621214937.648,-25.879,-35.156,-50.781,-38.086,0.000
1621214937.652,-20.020,-34.180,-41.016,-23.438,0.000
1621214937.656,-21.484,-32.227,-24.902,-21.484,0.000
1621214937.660,-15.625,-25.391,-25.879,-18.555,0.000
1621214937.664,-25.879,-28.320,-32.227,-15.625,0.000
1621214937.668,-30.273,-33.691,-46.875,-23.926,0.000
1621214937.671,-28.809,-32.227,-47.852,-12.695,0.000
1621214937.675,-27.832,-30.273,-41.504,-19.531,0.000
1621214937.679,-20.508,-28.809,-40.039,-39.062,0.000
1621214937.683,-15.625,-29.785,-46.387,-25.879,0.000
1621214937.687,-12.207,-28.320,-49.805,-16.602,0.000
1621214937.691,-17.090,-28.320,-48.340,-22.949,0.000
1621214937.695,-20.508,-28.809,-50.781,-26.855,0.000
1621214937.699,-21.973,-29.785,-48.828,-30.762,0.000
1621214937.703,-23.926,-30.762,-52.246,-25.391,0.000
1621214937.707,-16.113,-26.367,-53.711,-18.066,0.000
1621214937.711,-14.160,-23.438,-41.016,-25.391,0.000
1621214937.714,-24.414,-26.367,-39.062,-22.461,0.000
1621214937.718,-20.020,-28.320,-36.133,-6.836,0.000
1621214937.722,-3.418,-25.391,-22.949,-7.812,0.000
1621214937.726,-13.672,-33.691,-39.062,-17.090,0.000
1621214937.730,-21.484,-36.621,-45.898,-21.484,0.000
1621214937.734,-15.137,-28.320,-29.297,-14.160,0.000
1621214937.738,-19.043,-25.879,-27.344,-12.207,0.000
1621214937.742,-20.996,-30.273,-24.902,-20.996,0.000
1621214937.746,-19.531,-30.762,-26.855,-24.414,0.000
1621214937.750,-25.391,-24.902,-18.555,-20.508,0.000
1621214937.754,-16.602,-29.297,-10.254,-8.301,0.000
1621214937.757,-9.277,-31.738,-33.203,-20.508,0.000
1621214937.761,-25.391,-27.344,-53.711,-28.320,0.000
1621214937.765,-24.902,-28.809,-50.781,-21.973,0.000
1621214937.769,-25.391,-34.180,-47.852,-28.809,0.000
1621214937.773,-28.809,-35.156,-36.133,-22.461,0.000
1621214937.777,-25.879,-31.250,-28.320,-11.230,0.000
1621214937.781,-35.156,-26.367,-37.598,-24.414,0.000
1621214937.785,-34.668,-27.832,-38.086,-29.297,0.000
1621214937.789,-44.434,-30.273,-40.527,-34.180,0.000
1621214937.793,-55.664,-26.855,-39.062,-49.805,0.000
1621214937.796,-40.039,-25.391,-40.527,-48.340,0.000
1621214937.800,-45.898,-30.273,-47.363,-37.109,0.000
1621214937.804,-43.457,-31.738,-53.711,-29.785,0.000
1621214937.808,-41.016,-28.320,-51.270,-39.062,0.000
1621214937.812,-43.945,-27.832,-43.457,-53.711,0.000
1621214937.816,-45.410,-26.855,-45.898,-54.688,0.000
1621214937.820,-51.270,-27.344,-53.223,-41.016,0.000
1621214937.824,-47.363,-26.855,-53.711,-34.668,0.000
1621214937.828,-46.875,-26.367,-58.105,-42.480,0.000
1621214937.832,-50.293,-24.902,-60.547,-33.691,0.000
1621214937.836,-41.016,-26.367,-52.246,-25.879,0.000
1621214937.839,-44.922,-29.785,-49.316,-30.762,0.000
1621214937.843,-41.992,-24.902,-33.203,-41.992,0.000
1621214937.847,-29.297,-20.996,-41.992,-47.363,0.000
1621214937.851,-35.645,-22.949,-49.316,-37.109,0.000
1621214937.855,-50.293,-28.809,-40.527,-30.273,0.000
1621214937.859,-49.316,-31.250,-45.410,-48.828,0.000
1621214937.863,-37.598,-31.250,-38.574,-46.387,0.000
1621214937.867,-42.969,-32.715,-41.504,-35.645,0.000
1621214937.871,-37.598,-31.250,-42.969,-34.180,0.000
1621214937.875,-30.762,-30.273,-39.062,-38.574,0.000
1621214937.878,-31.738,-27.344,-57.617,-39.062,0.000
1621214937.882,-28.320,-26.367,-59.570,-29.297,0.000
1621214937.886,-27.344,-27.344,-48.340,-33.691,0.000
1621214937.890,-18.066,-27.344,-48.828,-35.156,0.000
1621214937.894,-24.414,-24.414,-42.969,-37.598,0.000
1621214937.898,-33.203,-24.902,-35.645,-34.668,0.000
1621214937.902,-20.508,-27.832,-33.691,-23.438,0.000
1621214937.906,-23.926,-30.762,-40.039,-20.508,0.000
1621214937.910,-26.855,-32.715,-35.645,-13.672,0.000
1621214937.914,-18.555,-26.855,-28.809,-19.043,0.000
1621214937.918,-22.461,-21.973,-42.480,-15.137,0.000
1621214937.921,-22.949,-21.484,-64.941,-11.719,0.000
1621214937.925,-22.949,-23.926,-71.777,-20.508,0.000
1621214937.929,-31.738,-24.902,-36.133,-21.484,0.000
1621214937.933,-30.762,-25.879,-17.578,-14.648,0.000
1621214937.937,-17.578,-28.809,-20.996,-3.906,0.000
1621214937.941,-21.484,-30.762,-25.879,-16.113,0.000
1621214937.945,-30.762,-29.297,-24.414,-21.973,0.000
1621214937.949,-19.531,-27.832,-27.832,-9.277,0.000
1621214937.953,-18.066,-23.438,-39.551,1.953,0.000
1621214937.957,-22.461,-23.438,-36.621,-12.695,0.000
1621214937.961,-25.391,-24.902,-41.016,-27.344,0.000
1621214937.964,-27.344,-28.809,-50.781,-27.344,0.000
1621214937.968,-22.461,-35.156,-39.551,-23.926,0.000
1621214937.972,-26.367,-32.227,-25.391,-14.648,0.000
1621214937.976,-28.809,-32.227,-31.738,-19.531,0.000
1621214937.980,-32.715,-31.738,-44.922,-28.809,0.000
1621214937.984,-41.504,-33.203,-39.062,-24.414,0.000
1621214937.988,-33.203,-38.086,-37.109,-30.762,0.000
1621214937.992,-36.133,-34.668,-36.133,-26.855,0.000
1621214937.996,-35.645,-32.227,-31.250,-30.762,0.000
1621214938.000,-22.461,-32.715,-37.109,-33.203,0.000
1621214938.003,-18.555,-34.668,-34.180,-22.949,0.000
1621214938.007,-26.855,-27.832,-26.855,-21.973,0.000
1621214938.011,-31.738,-19.043,-30.762,-17.578,0.000
1621214938.015,-29.297,-22.949,-48.340,-18.066,0.000
1621214938.019,-33.691,-30.273,-54.199,-27.344,0.000
1621214938.023,-31.738,-30.273,-48.828,-37.598,0.000
1621214938.027,-23.926,-31.738,-48.340,-36.621,0.000
1621214938.031,-32.227,-34.180,-43.945,-25.879,0.000
1621214938.035,-24.902,-29.785,-48.828,-17.578,0.000
1621214938.039,-13.672,-28.320,-50.293,-19.531,0.000
1621214938.043,-29.785,-32.227,-48.340,-23.438,0.000
1621214938.046,-52.246,-35.645,-43.945,-17.090,0.000
1621214938.050,-41.016,-35.156,-46.387,-19.531,0.000
1621214938.054,-24.902,-35.156,-55.664,-29.297,0.000
1621214938.058,-26.367,-32.715,-55.176,-17.578,0.000
1621214938.062,-23.438,-32.227,-42.969,-20.020,0.000
1621214938.066,-14.160,-29.785,-41.016,-30.273,0.000
1621214938.070,-25.879,-30.273,-40.039,-20.020,0.000
1621214938.074,-24.414,-34.180,-37.109,-20.996,0.000
1621214938.078,-18.066,-33.203,-44.434,-35.156,0.000
1621214938.082,-20.996,-29.297,-57.129,-33.691,0.000
1621214938.086,-23.438,-31.250,-57.129,-24.414,0.000
1621214938.089,-26.367,-27.832,-40.039,-16.113,0.000
1621214938.093,-27.344,-20.020,-35.156,-19.043,0.000
1621214938.097,-27.832,-20.996,-30.762,-19.531,0.000
1621214938.101,-14.160,-24.414,-35.156,-5.371,0.000
1621214938.105,-12.207,-30.762,-40.039,-5.371,0.000
1621214938.109,-20.508,-28.809,-42.969,-25.879,0.000
1621214938.113,-26.367,-26.367,-46.387,-29.785,0.000
1621214938.117,-23.926,-25.879,-39.062,-29.785,0.000
1621214938.121,-23.926,-21.973,-38.574,-36.621,0.000
1621214938.125,-48.828,-26.855,-38.086,-35.156,0.000
1621214938.128,-34.668,-32.715,-38.086,-20.020,0.000
1621214938.132,-12.207,-30.762,-37.598,-16.602,0.000
1621214938.136,-16.602,-29.785,-42.969,-29.785,0.000
1621214938.140,-21.484,-27.832,-50.781,-23.926,0.000
1621214938.144,-32.715,-29.785,-49.316,-21.973,0.000
1621214938.148,-17.090,-34.180,-38.574,-22.949,0.000
1621214938.152,-19.531,-29.297,-41.016,-16.602,0.000
1621214938.156,-34.180,-26.855,-57.129,-28.320,0.000
1621214938.160,-29.297,-27.344,-43.945,-38.574,0.000
1621214938.164,-27.832,-28.809,-33.691,-35.156,0.000
1621214938.168,-27.344,-28.809,-28.809,-19.531,0.000
1621214938.171,-37.109,-29.297,-34.180,-15.137,0.000
1621214938.175,-35.156,-29.297,-44.922,-22.461,0.000
1621214938.179,-23.438,-28.809,-35.645,-21.973,0.000
1621214938.183,-21.973,-31.250,-42.480,-21.973,0.000
1621214938.187,-33.203,-39.551,-52.734,-15.625,0.000
1621214938.191,-41.016,-43.457,-39.551,-19.043,0.000
1621214938.195,-46.875,-37.109,-34.180,-34.180,0.000
1621214938.199,-55.176,-34.180,-43.457,-28.320,0.000
1621214938.203,-38.086,-28.320,-38.574,-11.719,0.000
1621214938.207,-6.348,-22.461,-39.551,-13.184,0.000
1621214938.211,-26.367,-27.344,-50.293,-28.320,0.000
1621214938.214,-39.551,-29.297,-46.875,-35.156,0.000
1621214938.218,-12.695,-25.879,-44.922,-39.551,0.000
1621214938.222,-22.949,-25.879,-43.457,-36.621,0.000
1621214938.226,-26.855,-30.273,-40.039,-36.621,0.000
1621214938.230,-31.738,-32.227,-40.527,-34.668,0.000
1621214938.234,-62.012,-29.785,-44.434,-38.086,0.000
1621214938.238,-54.688,-30.273,-42.969,-30.273,0.000
1621214938.242,-39.062,-34.180,-35.645,-25.879,0.000
1621214938.246,-46.875,-35.156,-44.922,-41.992,0.000
1621214938.250,-32.715,-34.668,-57.617,-32.715,0.000
1621214938.253,-11.719,-31.738,-57.617,-22.949,0.000
1621214938.257,-26.367,-27.832,-44.434,-26.367,0.000
1621214938.261,-41.504,-27.344,-34.180,-29.785,0.000
1621214938.265,-47.363,-36.133,-44.434,-33.203,0.000
1621214938.269,-27.832,-35.156,-46.387,-24.414,0.000
1621214938.273,-22.949,-36.133,-33.691,-26.855,0.000
1621214938.277,-35.156,-38.574,-38.086,-57.129,0.000
1621214938.281,-34.180,-31.250,-46.387,-44.922,0.000
1621214938.285,-20.508,-26.855,-46.875,-17.090,0.000
1621214938.289,-5.859,-26.855,-43.945,-23.438,0.000
1621214938.293,-26.855,-37.109,-31.738,-27.344,0.000
1621214938.296,-33.203,-41.504,-26.367,-24.902,0.000
1621214938.300,-24.902,-41.016,-36.621,-15.625,0.000
1621214938.304,-20.996,-45.898,-40.527,-16.113,0.000
1621214938.308,-40.527,-41.016,-36.133,-33.691,0.000
1621214938.312,-50.293,-35.645,-37.598,-27.832,0.000
1621214938.316,-39.551,-35.156,-37.598,-25.879,0.000
1621214938.320,-19.043,-34.180,-39.062,-37.109,0.000
1621214938.324,-18.066,-31.250,-42.969,-45.410,0.000
1621214938.328,-42.480,-32.715,-59.570,-38.574,0.000
1621214938.332,-43.945,-35.156,-47.852,-24.414,0.000
1621214938.336,-29.297,-29.297,-18.555,-25.391,0.000
1621214938.339,-18.066,-27.832,-28.809,-28.320,0.000
1621214938.343,-20.508,-24.414,-30.762,-24.414,0.000
1621214938.347,-24.414,-16.602,-30.273,-21.484,0.000
1621214938.351,-14.160,-22.949,-39.551,-11.230,0.000
1621214938.355,-21.484,-29.297,-41.992,-22.461,0.000
1621214938.359,-15.625,-33.203,-45.898,-38.086,0.000
1621214938.363,-12.695,-31.738,-39.062,-33.203,0.000
1621214938.367,-33.203,-26.855,-39.551,-37.598,0.000
1621214938.371,-40.527,-35.645,-50.781,-36.133,0.000
1621214938.375,-43.945,-41.016,-50.293,-30.762,0.000
1621214938.378,-40.527,-32.715,-39.062,-17.090,0.000
1621214938.382,-29.297,-29.297,-47.852,-13.672,0.000
1621214938.386,-33.203,-33.691,-68.848,-21.973,0.000
1621214938.390,-32.227,-28.320,-43.457,-15.625,0.000
1621214938.394,-24.414,-24.902,-18.555,-20.996,0.000
1621214938.398,-12.207,-29.785,-21.973,-40.039,0.000
1621214938.402,-14.648,-30.762,-31.250,-25.391,0.000
1621214938.406,-22.949,-32.227,-39.551,-18.066,0.000
1621214938.410,-15.137,-28.320,-35.156,-35.156,0.000
1621214938.414,-24.414,-26.855,-38.086,-28.320,0.000
1621214938.418,-20.996,-31.250,-41.992,-15.625,0.000
1621214938.421,-4.883,-32.715,-50.293,-35.156,0.000
1621214938.425,-23.438,-31.738,-47.363,-40.039,0.000
1621214938.429,-30.273,-27.832,-43.457,-37.598,0.000
1621214938.433,-13.184,-30.273,-42.480,-27.832,0.000
1621214938.437,-16.602,-33.691,-32.227,-15.137,0.000
1621214938.441,-20.996,-28.320,-34.668,-29.297,0.000
1621214938.445,-25.391,-26.855,-39.551,-39.062,0.000
1621214938.449,-26.367,-25.391,-40.039,-29.785,0.000
1621214938.453,-18.066,-26.855,-41.992,-9.766,0.000
1621214938.457,-22.461,-30.762,-37.598,-18.555,0.000
1621214938.461,-24.414,-29.297,-26.367,-38.574,0.000
1621214938.464,-16.113,-28.320,-27.344,-40.527,0.000
1621214938.468,-16.602,-25.391,-41.992,-39.062,0.000
1621214938.472,-29.785,-24.902,-43.457,-40.039,0.000
1621214938.476,-17.090,-24.414,-36.621,-30.762,0.000
1621214938.480,-22.949,-23.926,-33.691,-20.020,0.000
1621214938.484,-39.062,-27.344,-36.621,-22.949,0.000
1621214938.488,-37.109,-28.320,-39.062,-19.043,0.000
1621214938.492,-27.832,-27.832,-37.598,-21.973,0.000
1621214938.496,-25.391,-27.832,-36.621,-32.227,0.000
1621214938.500,-27.344,-24.414,-35.645,-15.137,0.000
1621214938.503,-26.855,-26.855,-37.109,-18.555,0.000
1621214938.507,-18.066,-30.762,-40.039,-29.297,0.000
1621214938.511,-16.602,-28.809,-46.875,-25.879,0.000
1621214938.515,-25.391,-26.855,-47.852,-24.902,0.000
1621214938.519,-20.508,-25.391,-35.645,-31.738,0.000
1621214938.523,-20.020,-29.297,-30.762,-31.250,0.000
1621214938.527,-29.297,-29.785,-43.457,-23.438,0.000
1621214938.531,-27.832,-27.832,-48.828,-31.250,0.000
1621214938.535,-25.879,-28.320,-46.387,-28.320,0.000
1621214938.539,-21.484,-26.367,-51.758,-31.250,0.000
1621214938.543,-24.414,-26.367,-61.035,-35.156,0.000
1621214938.546,-30.273,-25.391,-55.176,-28.320,0.000
1621214938.550,-21.973,-26.367,-41.504,-32.715,0.000
1621214938.554,-26.367,-28.809,-35.645,-23.926,0.000
1621214938.558,-24.414,-28.320,-33.691,-25.879,0.000
1621214938.562,-23.438,-29.785,-44.434,-38.574,0.000
1621214938.566,-33.203,-27.832,-54.199,-31.250,0.000
1621214938.570,-21.973,-23.926,-36.621,-22.461,0.000
1621214938.574,-30.273,-26.855,-29.297,-35.645,0.000
1621214938.578,-40.527,-29.297,-49.805,-51.270,0.000
1621214938.582,-31.738,-26.855,-52.246,-43.457,0.000
1621214938.586,-25.879,-26.367,-35.156,-24.414,0.000
1621214938.589,-7.324,-20.508,-34.668,-15.137,0.000
1621214938.593,-15.625,-19.043,-49.316,-24.414,0.000
1621214938.597,-32.227,-26.367,-47.363,-18.555,0.000
1621214938.601,-20.996,-28.809,-35.645,-16.602,0.000
1621214938.605,-19.531,-31.250,-36.621,-31.250,0.000
1621214938.609,-19.531,-32.227,-46.875,-30.762,0.000
1621214938.613,-11.719,-30.273,-46.875,-27.832,0.000
1621214938.617,-15.625,-27.832,-42.969,-19.043,0.000
1621214938.621,-17.578,-23.926,-39.062,-14.160,0.000
1621214938.625,-9.277,-25.391,-33.203,-20.508,0.000
1621214938.628,-13.184,-28.809,-31.250,-30.273,0.000
1621214938.632,-6.836,-27.832,-39.551,-27.832,0.000
1621214938.636,-9.277,-28.320,-41.504,-25.879,0.000
1621214938.640,-8.301,-30.762,-41.992,-24.414,0.000
1621214938.644,-9.766,-33.203,-48.828,-31.250,0.000
1621214938.648,-22.461,-34.180,-44.922,-29.297,0.000
1621214938.652,-25.879,-41.016,-42.480,-20.020,0.000
1621214938.656,-30.762,-41.992,-39.551,-31.738,0.000
1621214938.660,-43.457,-39.062,-34.668,-35.645,0.000
1621214938.664,-39.062,-37.109,-38.574,-28.809,0.000
1621214938.668,-25.391,-35.645,-37.109,-25.391,0.000
1621214938.671,-35.156,-37.598,-37.598,-31.738,0.000
1621214938.675,-43.457,-32.227,-39.551,-30.273,0.000
1621214938.679,-32.227,-25.391,-38.086,-28.320,0.000
1621214938.683,-29.785,-28.809,-36.133,-38.574,0.000
