timestamps,TP9,AF7,AF8,TP10,Right AUX
1621214705.718,11.230,-15.137,-39.062,-32.227,0.000
1621214705.722,-3.418,-10.742,-35.156,-13.672,0.000
1621214705.726,-19.043,-21.484,-36.133,-11.719,0.000
1621214705.730,-25.879,-26.855,-38.574,-21.484,0.000
1621214705.734,-24.414,-28.320,-36.621,-16.113,0.000
1621214705.738,-16.602,-34.180,-38.574,-15.137,0.000
1621214705.741,-24.902,-33.203,-36.621,-11.719,0.000
1621214705.745,-42.969,-32.715,-32.715,-17.090,0.000
1621214705.749,-42.969,-34.180,-28.809,-14.648,0.000
1621214705.753,-22.949,-38.574,-30.273,-8.789,0.000
1621214705.757,-6.348,-34.668,-30.762,-13.672,0.000
1621214705.761,-1.953,-34.668,-33.203,-21.973,0.000
1621214705.765,-9.766,-35.645,-37.598,-17.090,0.000
1621214705.769,-12.207,-30.762,-41.016,-13.184,0.000
1621214705.773,4.395,-31.250,-45.410,-20.996,0.000
1621214705.777,7.324,-30.273,-42.969,-24.414,0.000
1621214705.781,-16.602,-35.156,-40.039,-26.367,0.000
1621214705.784,-55.176,-48.828,-37.598,-25.391,0.000
1621214705.788,-54.688,-47.363,-36.621,-23.926,0.000
1621214705.792,-26.367,-33.203,-41.992,-41.504,0.000
1621214705.796,-28.809,-28.320,-45.410,-52.246,0.000
1621214705.800,-51.758,-34.668,-42.969,-33.691,0.000
1621214705.804,-58.594,-40.039,-38.574,-22.949,0.000
1621214705.808,-30.273,-28.809,-40.527,-25.391,0.000
1621214705.812,-11.719,-21.484,-38.574,-27.344,0.000
1621214705.816,-32.715,-23.926,-35.645,-17.090,0.000
1621214705.820,-39.551,-21.973,-38.086,-13.672,0.000
1621214705.824,-7.812,-30.273,-40.527,-20.020,0.000
1621214705.827,8.789,-32.715,-41.504,-20.020,0.000
1621214705.831,-4.395,-33.203,-42.969,-9.277,0.000
1621214705.835,-17.578,-38.086,-39.551,-9.277,0.000
1621214705.839,-12.207,-33.203,-33.203,-15.625,0.000
1621214705.843,-3.906,-35.156,-33.691,-9.766,0.000
1621214705.847,-13.672,-38.086,-34.180,-8.301,0.000
1621214705.851,-6.348,-31.738,-30.762,-10.254,0.000
1621214705.855,5.371,-34.180,-30.273,-11.230,0.000
1621214705.859,-8.789,-36.621,-34.668,-13.672,0.000
1621214705.863,-11.230,-29.297,-37.109,-20.020,0.000
1621214705.866,-24.414,-27.344,-31.738,-29.297,0.000
1621214705.870,-23.438,-35.645,-36.133,-32.227,0.000
1621214705.874,-17.578,-35.156,-43.457,-33.691,0.000
1621214705.878,-32.227,-24.902,-40.039,-38.086,0.000
1621214705.882,-25.391,-20.996,-40.039,-31.738,0.000
1621214705.886,-18.066,-24.414,-42.969,-28.320,0.000
1621214705.890,-13.672,-33.691,-40.039,-27.344,0.000
1621214705.894,-26.855,-33.203,-36.621,-28.809,0.000
1621214705.898,-54.199,-30.273,-40.039,-32.227,0.000
1621214705.902,-48.828,-34.668,-42.480,-32.715,0.000
1621214705.906,-27.344,-31.738,-40.039,-33.203,0.000
1621214705.909,-9.277,-30.762,-36.133,-38.574,0.000
1621214705.913,-3.906,-29.785,-35.645,-38.574,0.000
1621214705.917,-28.320,-33.691,-37.109,-33.691,0.000
1621214705.921,-43.457,-38.086,-30.762,-31.250,0.000
1621214705.925,-55.176,-35.156,-26.367,-20.508,0.000
1621214705.929,-58.594,-35.156,-31.738,-21.484,0.000
1621214705.933,-39.551,-28.809,-38.086,-27.832,0.000
1621214705.937,-33.691,-23.438,-36.133,-12.695,0.000
1621214705.941,-17.578,-33.203,-27.832,-4.883,0.000
1621214705.945,-4.395,-39.551,-32.227,-23.926,0.000
1621214705.948,-10.254,-43.945,-37.598,-35.156,0.000
1621214705.952,-22.461,-41.504,-34.180,-34.180,0.000
1621214705.956,-48.340,-42.969,-26.855,-25.391,0.000
1621214705.960,-64.453,-45.898,-24.414,-19.043,0.000
1621214705.964,-54.199,-42.480,-26.367,-31.738,0.000
1621214705.968,-43.457,-38.574,-26.367,-33.691,0.000
1621214705.972,-30.273,-36.621,-31.250,-25.879,0.000
1621214705.976,-16.602,-34.180,-34.668,-31.250,0.000
1621214705.980,-13.184,-38.086,-36.621,-27.344,0.000
1621214705.984,0.488,-38.086,-41.016,-20.020,0.000
1621214705.988,-3.418,-35.156,-39.062,-22.461,0.000
1621214705.991,-32.715,-41.016,-32.715,-18.555,0.000
1621214705.995,-30.762,-37.109,-32.227,-15.137,0.000
1621214705.999,-13.184,-33.203,-36.621,-13.672,0.000
1621214706.003,-17.090,-38.574,-40.039,-16.602,0.000
1621214706.007,-27.344,-38.086,-40.039,-28.320,0.000
1621214706.011,-30.762,-33.691,-36.133,-41.992,0.000
1621214706.015,-33.691,-27.832,-26.855,-42.969,0.000
1621214706.019,-37.109,-23.438,-25.391,-28.320,0.000
1621214706.023,-38.574,-23.926,-26.855,-16.602,0.000
1621214706.027,-22.461,-21.484,-26.367,-22.949,0.000
1621214706.031,-20.020,-20.996,-30.762,-37.598,0.000
1621214706.034,-12.695,-33.203,-33.691,-37.598,0.000
1621214706.038,-20.020,-45.410,-38.574,-29.297,0.000
1621214706.042,-47.363,-40.527,-41.504,-29.297,0.000
1621214706.046,-40.039,-28.320,-37.598,-35.156,0.000
1621214706.050,-21.973,-27.344,-34.180,-34.668,0.000
1621214706.054,-17.578,-30.762,-34.668,-36.133,0.000
1621214706.058,-33.203,-32.715,-37.598,-37.598,0.000
1621214706.062,-35.645,-23.438,-40.527,-41.016,0.000
1621214706.066,-15.625,-28.320,-40.039,-44.922,0.000
1621214706.070,-16.602,-44.922,-41.016,-41.016,0.000
1621214706.073,-11.230,-37.109,-41.992,-38.574,0.000
1621214706.077,-1.953,-28.320,-42.480,-37.598,0.000
1621214706.081,-14.648,-27.344,-41.504,-36.621,0.000
1621214706.085,-37.109,-35.645,-40.039,-27.832,0.000
1621214706.089,-67.383,-42.480,-41.992,-28.809,0.000
1621214706.093,-71.289,-39.062,-40.527,-36.621,0.000
1621214706.097,-44.922,-35.645,-36.621,-36.621,0.000
1621214706.101,-40.527,-36.621,-40.527,-26.855,0.000
1621214706.105,-41.016,-31.738,-41.504,-16.113,0.000
1621214706.109,-39.062,-36.621,-37.109,-12.695,0.000
1621214706.113,-26.367,-57.129,-37.598,-16.602,0.000
1621214706.116,-10.742,-48.828,-36.621,-25.391,0.000
1621214706.120,-8.789,-32.227,-39.551,-32.227,0.000
1621214706.124,-17.090,-32.227,-41.992,-31.738,0.000
1621214706.128,-14.160,-31.738,-36.133,-27.344,0.000
1621214706.132,-14.160,-39.062,-30.762,-28.809,0.000
1621214706.136,-20.508,-40.527,-35.156,-31.738,0.000
1621214706.140,-10.254,-21.484,-41.016,-41.504,0.000
1621214706.144,-13.672,-23.438,-36.133,-41.992,0.000
1621214706.148,-11.719,-32.715,-32.227,-32.715,0.000
1621214706.152,-9.766,-26.855,-30.762,-25.391,0.000
1621214706.156,-27.344,-29.297,-30.762,-21.484,0.000
1621214706.159,-53.223,-32.715,-29.785,-22.461,0.000
1621214706.163,-52.246,-35.645,-31.250,-22.461,0.000
1621214706.167,-42.480,-35.645,-30.762,-17.090,0.000
1621214706.171,-32.227,-29.785,-26.855,-9.277,0.000
1621214706.175,-22.949,-30.762,-28.320,-17.090,0.000
1621214706.179,-11.719,-28.320,-28.809,-27.344,0.000
1621214706.183,-20.020,-25.391,-28.809,-23.926,0.000
1621214706.187,-31.738,-32.227,-32.227,-22.949,0.000
1621214706.191,-21.973,-38.086,-33.203,-33.203,0.000
1621214706.195,-20.020,-44.434,-33.691,-36.133,0.000
1621214706.199,-25.391,-47.852,-34.180,-32.227,0.000
1621214706.202,-34.180,-41.016,-38.086,-34.180,0.000
1621214706.206,-17.578,-27.344,-38.574,-28.809,0.000
1621214706.210,-0.977,-21.973,-41.504,-32.715,0.000
1621214706.214,-18.066,-34.668,-46.875,-43.457,0.000
1621214706.218,-24.902,-39.062,-44.922,-32.227,0.000
1621214706.222,-47.852,-38.574,-42.969,-28.809,0.000
1621214706.226,-68.848,-35.645,-39.062,-41.504,0.000
1621214706.230,-45.410,-32.227,-36.621,-43.457,0.000
1621214706.234,-34.180,-38.574,-38.574,-35.156,0.000
1621214706.238,-34.180,-40.039,-38.086,-26.367,0.000
1621214706.241,-25.391,-35.645,-41.504,-33.691,0.000
1621214706.245,-16.113,-36.621,-39.551,-39.062,0.000
1621214706.249,-16.113,-40.039,-36.621,-24.414,0.000
1621214706.253,-25.879,-38.086,-35.645,-4.395,0.000
1621214706.257,-33.203,-36.133,-33.691,-3.906,0.000
1621214706.261,-31.738,-34.180,-33.691,-11.230,0.000
1621214706.265,-15.625,-33.203,-32.227,-8.789,0.000
1621214706.269,-1.953,-31.250,-32.715,-18.555,0.000
1621214706.273,16.113,-37.109,-35.156,-32.715,0.000
1621214706.277,12.695,-44.434,-34.668,-24.902,0.000
1621214706.281,-26.367,-44.922,-30.762,-14.648,0.000
1621214706.284,-41.016,-38.574,-32.227,-12.207,0.000
1621214706.288,-35.645,-36.133,-35.645,-15.137,0.000
1621214706.292,-36.133,-35.645,-36.621,-20.020,0.000
1621214706.296,-17.578,-36.621,-38.574,-21.484,0.000
1621214706.300,-1.953,-42.480,-39.062,-19.531,0.000
1621214706.304,-11.230,-29.297,-36.621,-15.137,0.000
1621214706.308,-32.227,-24.414,-34.180,-19.531,0.000
1621214706.312,-41.504,-32.227,-34.668,-24.902,0.000
1621214706.316,-38.574,-25.391,-35.645,-22.461,0.000
1621214706.320,-30.273,-22.949,-34.668,-22.461,0.000
1621214706.323,-20.020,-24.414,-36.621,-21.973,0.000
1621214706.327,-12.695,-25.391,-39.551,-20.508,0.000
1621214706.331,-19.531,-34.180,-44.434,-27.344,0.000
1621214706.335,-24.902,-36.133,-41.504,-29.297,0.000
1621214706.339,-29.785,-32.227,-34.668,-27.344,0.000
1621214706.343,-33.691,-29.785,-38.086,-31.250,0.000
1621214706.347,-26.367,-29.785,-37.598,-34.180,0.000
1621214706.351,-23.438,-31.738,-41.016,-37.109,0.000
1621214706.355,-16.602,-33.691,-40.527,-27.832,0.000
1621214706.359,-9.766,-31.738,-35.645,-23.926,0.000
1621214706.363,-15.137,-28.320,-38.086,-32.227,0.000
1621214706.366,-22.461,-41.016,-37.109,-20.996,0.000
1621214706.370,-17.090,-51.758,-36.621,-12.695,0.000
1621214706.374,-4.883,-35.156,-36.621,-22.949,0.000
1621214706.378,-3.418,-21.484,-37.598,-28.809,0.000
1621214706.382,-20.996,-24.414,-34.180,-17.578,0.000
1621214706.386,-31.250,-35.156,-33.691,-7.324,0.000
1621214706.390,-16.113,-41.016,-32.227,-2.441,0.000
1621214706.394,-9.277,-37.109,-29.785,-9.277,0.000
1621214706.398,-12.207,-30.273,-36.621,-29.297,0.000
1621214706.402,-7.812,-32.715,-36.621,-22.949,0.000
1621214706.405,-2.441,-36.133,-29.297,-4.395,0.000
1621214706.409,-12.695,-38.086,-25.879,-8.789,0.000
1621214706.413,-26.367,-41.992,-28.809,-24.414,0.000
1621214706.417,-30.762,-43.945,-27.344,-32.227,0.000
1621214706.421,-35.645,-43.945,-27.832,-31.250,0.000
1621214706.425,-36.621,-41.016,-28.809,-34.180,0.000
1621214706.429,-46.875,-36.133,-24.414,-33.203,0.000
1621214706.433,-67.871,-46.875,-29.297,-29.297,0.000
1621214706.437,-75.195,-51.758,-26.367,-45.898,0.000
1621214706.441,-76.172,-49.316,-11.230,-58.594,0.000
1621214706.445,-77.637,-50.781,-10.254,-50.293,0.000
1621214706.448,-88.379,-53.223,-15.137,-58.594,0.000
1621214706.452,-95.215,-50.293,-9.766,-75.684,0.000
1621214706.456,-101.562,-49.805,-14.648,-93.750,0.000
1621214706.460,-118.164,-63.477,-14.648,-117.676,0.000
1621214706.464,-132.812,-62.988,-5.371,-125.000,0.000
1621214706.468,-153.809,-57.129,-14.160,-141.602,0.000
1621214706.472,-163.574,-61.523,-23.926,-150.879,0.000
1621214706.476,-171.387,-68.848,-16.113,-159.668,0.000
1621214706.480,-194.824,-67.871,-19.531,-181.152,0.000
1621214706.484,-214.844,-74.219,-38.086,-195.312,0.000
1621214706.488,-229.980,-75.195,-22.949,-187.500,0.000
1621214706.491,-245.605,-69.824,14.160,-197.754,0.000
1621214706.495,-245.605,-80.078,34.668,-221.191,0.000
1621214706.499,-247.559,-88.379,35.156,-225.098,0.000
1621214706.503,-227.539,-87.891,36.133,-206.055,0.000
1621214706.507,-216.797,-100.098,25.391,-183.105,0.000
1621214706.511,-255.371,-97.656,5.371,-196.289,0.000
1621214706.515,-265.137,-82.520,27.344,-201.660,0.000
1621214706.519,-242.188,-80.078,22.461,-184.570,0.000
1621214706.523,-226.562,-79.590,25.879,-169.434,0.000
1621214706.527,-218.262,-79.102,46.875,-175.293,0.000
1621214706.531,-207.031,-80.566,21.973,-177.734,0.000
1621214706.534,-198.242,-83.496,19.043,-163.574,0.000
1621214706.538,-186.523,-84.473,28.320,-165.527,0.000
1621214706.542,-179.688,-84.961,17.578,-160.156,0.000
1621214706.546,-187.988,-90.332,3.418,-135.742,0.000
1621214706.550,-195.312,-93.262,-2.441,-123.047,0.000
1621214706.554,-179.199,-82.031,7.812,-107.910,0.000
1621214706.558,-156.250,-78.613,41.504,-94.238,0.000
1621214706.562,-141.602,-89.844,35.645,-98.145,0.000
1621214706.566,-129.883,-91.309,-5.371,-82.520,0.000
1621214706.570,-116.699,-82.031,4.395,-70.312,0.000
1621214706.573,-106.445,-77.637,20.508,-72.266,0.000
1621214706.577,-97.656,-74.707,-4.395,-65.430,0.000
1621214706.581,-90.332,-69.336,-16.113,-53.223,0.000
1621214706.585,-94.238,-71.289,4.883,-50.781,0.000
1621214706.589,-85.449,-74.219,19.043,-53.223,0.000
1621214706.593,-74.219,-75.195,34.180,-50.293,0.000
1621214706.597,-65.430,-73.242,18.555,-48.340,0.000
1621214706.601,-55.176,-69.336,-12.207,-41.016,0.000
1621214706.605,-39.551,-66.406,1.953,-37.598,0.000
1621214706.609,-38.086,-63.965,2.441,-41.504,0.000
1621214706.613,-32.227,-61.035,-14.648,-37.109,0.000
1621214706.616,-11.719,-57.617,-13.672,-28.320,0.000
1621214706.620,-54.688,-60.059,-25.391,-14.160,0.000
1621214706.624,-63.477,-62.500,-33.203,6.348,0.000
1621214706.628,-13.184,-62.988,-24.902,0.977,0.000
1621214706.632,-6.836,-62.012,-9.277,-6.348,0.000
1621214706.636,-1.465,-55.176,3.906,8.789,0.000
1621214706.640,16.602,-52.246,7.324,34.180,0.000
1621214706.644,25.879,-48.828,-18.555,40.039,0.000
1621214706.648,13.672,-45.898,-44.922,25.391,0.000
1621214706.652,20.020,-51.758,-35.645,24.902,0.000
1621214706.656,48.340,-54.199,-30.273,31.738,0.000
1621214706.659,46.387,-45.410,-31.250,29.785,0.000
1621214706.663,38.086,-36.621,-22.949,24.902,0.000
1621214706.667,48.340,-38.086,-20.508,34.180,0.000
1621214706.671,44.922,-35.156,-34.180,45.410,0.000
1621214706.675,49.316,-32.715,-37.109,49.316,0.000
1621214706.679,53.223,-31.738,-31.738,41.016,0.000
1621214706.683,48.340,-33.691,-33.691,45.410,0.000
1621214706.687,52.734,-34.668,-43.945,63.477,0.000
1621214706.691,59.570,-28.320,-71.289,53.711,0.000
1621214706.695,54.688,-24.902,-66.895,38.086,0.000
1621214706.698,34.180,-33.691,-45.898,35.156,0.000
1621214706.702,39.062,-35.645,-30.273,34.668,0.000
1621214706.706,51.270,-26.855,-25.391,44.434,0.000
1621214706.710,62.500,-23.926,-28.809,50.293,0.000
1621214706.714,62.012,-21.484,-43.457,36.621,0.000
1621214706.718,48.340,-19.043,-45.898,33.691,0.000
1621214706.722,45.898,-31.250,-35.645,27.344,0.000
1621214706.726,45.898,-40.527,-39.551,11.230,0.000
1621214706.730,56.152,-31.738,-46.875,14.160,0.000
1621214706.734,63.477,-19.043,-43.457,7.324,0.000
1621214706.737,60.059,-12.695,-58.594,8.789,0.000
1621214706.741,55.176,-13.184,-68.359,29.297,0.000
1621214706.745,28.320,-8.301,-47.363,25.391,0.000
1621214706.749,8.789,-14.648,-41.992,22.461,0.000
1621214706.753,8.301,-21.973,-53.223,18.555,0.000
1621214706.757,19.531,-22.461,-31.738,11.230,0.000
1621214706.761,20.020,-35.156,-17.578,5.371,0.000
1621214706.765,5.859,-45.410,-18.555,6.836,0.000
1621214706.769,-3.906,-51.270,-37.109,12.695,0.000
1621214706.773,-12.695,-55.664,-66.406,5.859,0.000
1621214706.777,-9.766,-40.527,-50.293,2.441,0.000
1621214706.780,-6.836,-28.320,-19.531,-0.977,0.000
1621214706.784,-11.719,-33.203,-10.254,-13.672,0.000
1621214706.788,-11.719,-41.504,-7.324,-12.207,0.000
1621214706.792,-15.625,-45.410,6.348,-23.926,0.000
1621214706.796,-16.113,-45.410,1.465,-37.109,0.000
1621214706.800,0.000,-48.340,-9.277,-23.438,0.000
1621214706.804,-0.488,-46.387,-10.254,-9.277,0.000
1621214706.808,-0.977,-42.969,-18.555,-5.859,0.000
1621214706.812,-11.719,-47.852,-28.809,-10.254,0.000
1621214706.816,-22.461,-45.898,-19.043,-9.277,0.000
1621214706.820,2.441,-41.992,-11.719,0.000,0.000
1621214706.823,4.395,-38.574,-15.625,8.789,0.000
1621214706.827,-8.301,-35.156,-7.324,3.418,0.000
1621214706.831,0.977,-37.109,-10.742,-1.465,0.000
1621214706.835,-12.207,-42.480,-44.922,-2.441,0.000
1621214706.839,-11.230,-43.457,-48.340,-0.977,0.000
1621214706.843,20.508,-41.504,-32.227,-1.953,0.000
1621214706.847,13.184,-43.945,-22.461,-6.836,0.000
1621214706.851,2.441,-43.945,-21.484,-3.906,0.000
1621214706.855,-5.859,-39.551,-21.973,3.906,0.000
1621214706.859,-4.883,-30.273,-26.367,6.348,0.000
1621214706.863,0.977,-42.480,-32.715,4.883,0.000
1621214706.866,-2.930,-56.641,-43.945,-5.371,0.000
1621214706.870,6.348,-41.992,-57.617,-6.836,0.000
1621214706.874,4.395,-29.297,-42.969,2.930,0.000
1621214706.878,12.695,-24.414,-26.367,4.883,0.000
1621214706.882,20.508,-23.438,-33.691,-4.395,0.000
1621214706.886,18.066,-25.879,-40.527,-19.043,0.000
1621214706.890,20.996,-22.461,-44.922,-17.090,0.000
1621214706.894,24.414,-12.695,-37.598,-10.742,0.000
1621214706.898,28.809,-7.812,-30.273,-15.137,0.000
1621214706.902,21.484,-14.160,-40.039,-11.230,0.000
1621214706.905,5.859,-20.508,-70.312,-9.766,0.000
1621214706.909,7.812,-20.996,-62.988,-16.602,0.000
1621214706.913,-2.441,-32.227,-32.227,-21.973,0.000
1621214706.917,-11.719,-35.156,-38.086,-26.855,0.000
1621214706.921,1.465,-22.949,-42.480,-15.625,0.000
1621214706.925,4.883,-16.113,-38.574,-7.812,0.000
1621214706.929,-2.930,-15.137,-41.016,-16.113,0.000
1621214706.933,-5.859,-18.555,-48.828,-24.414,0.000
1621214706.937,-1.465,-22.461,-55.664,-26.855,0.000
1621214706.941,-17.578,-23.438,-53.711,-25.391,0.000
1621214706.945,-23.926,-22.461,-45.410,-21.973,0.000
1621214706.948,-8.789,-23.926,-46.875,-16.602,0.000
1621214706.952,-15.625,-26.855,-56.152,-15.625,0.000
1621214706.956,-8.789,-25.391,-53.223,-3.906,0.000
1621214706.960,-15.625,-29.785,-28.320,-14.648,0.000
1621214706.964,-31.250,-32.715,-15.137,-28.809,0.000
1621214706.968,-6.836,-31.738,-24.902,-21.973,0.000
1621214706.972,1.953,-34.180,-30.273,-26.367,0.000
1621214706.976,-7.812,-36.621,-41.504,-49.805,0.000
1621214706.980,-6.836,-31.738,-44.922,-61.035,0.000
1621214706.984,-9.766,-27.832,-34.180,-48.828,0.000
1621214706.988,-11.719,-29.785,-36.621,-40.039,0.000
1621214706.991,-17.090,-34.180,-41.992,-41.504,0.000
1621214706.995,-24.414,-33.691,-46.387,-46.387,0.000
1621214706.999,-23.926,-27.344,-42.480,-37.109,0.000
1621214707.003,-15.625,-19.043,-41.016,-23.438,0.000
1621214707.007,7.812,-19.531,-41.504,-17.090,0.000
1621214707.011,12.207,-19.531,-29.297,-11.719,0.000
1621214707.015,-10.254,-16.602,-46.387,-17.578,0.000
1621214707.019,-27.344,-19.531,-56.641,-19.531,0.000
1621214707.023,-27.832,-22.949,-27.832,-15.625,0.000
1621214707.027,-25.879,-30.273,-19.531,-12.207,0.000
1621214707.030,-33.203,-33.203,-17.090,-11.719,0.000
1621214707.034,-28.809,-32.227,-18.555,-14.160,0.000
1621214707.038,-19.043,-34.180,-31.250,-9.277,0.000
1621214707.042,-20.508,-37.598,-31.738,-10.742,0.000
1621214707.046,-38.086,-39.062,-30.273,-26.367,0.000
1621214707.050,-43.457,-41.016,-22.949,-27.832,0.000
1621214707.054,-26.855,-34.668,-12.207,-22.949,0.000
1621214707.058,-16.602,-29.297,-22.461,-40.527,0.000
1621214707.062,-15.137,-29.785,-32.227,-54.688,0.000
1621214707.066,-17.578,-23.438,-40.527,-56.641,0.000
1621214707.070,-10.254,-25.879,-36.621,-51.270,0.000
1621214707.073,-14.648,-34.180,-25.391,-45.898,0.000
1621214707.077,-15.137,-35.156,-32.715,-48.340,0.000
1621214707.081,-8.301,-37.109,-24.414,-38.574,0.000
1621214707.085,-11.719,-38.574,-31.738,-25.391,0.000
1621214707.089,-18.555,-36.133,-46.875,-31.250,0.000
1621214707.093,-17.090,-34.180,-32.227,-34.180,0.000
1621214707.097,-20.020,-30.273,-26.855,-27.344,0.000
1621214707.101,-11.230,-27.344,-24.902,-28.320,0.000
1621214707.105,2.441,-29.297,-26.367,-24.414,0.000
1621214707.109,-20.020,-33.203,-30.273,-27.344,0.000
1621214707.112,-23.438,-34.668,-22.949,-33.203,0.000
1621214707.116,-4.883,-36.133,-17.090,-31.738,0.000
1621214707.120,0.000,-32.715,-32.227,-27.832,0.000
1621214707.124,0.488,-33.691,-35.156,-19.531,0.000
1621214707.128,0.488,-35.156,-34.668,-18.066,0.000
1621214707.132,-2.930,-32.227,-32.227,-19.531,0.000
1621214707.136,-12.207,-37.109,-42.480,-23.926,0.000
1621214707.140,-16.113,-40.039,-51.758,-29.297,0.000
1621214707.144,-19.531,-36.621,-44.434,-36.133,0.000
1621214707.148,-28.320,-38.086,-32.715,-31.250,0.000
1621214707.152,-28.320,-35.156,-15.137,-20.508,0.000
1621214707.155,-16.602,-29.297,-16.113,-25.879,0.000
1621214707.159,-8.789,-31.250,-24.414,-28.320,0.000
1621214707.163,-12.695,-34.668,-37.109,-30.762,0.000
1621214707.167,-23.926,-38.086,-40.527,-37.598,0.000
1621214707.171,-20.020,-30.762,-44.434,-35.645,0.000
1621214707.175,-19.531,-21.484,-45.410,-21.484,0.000
1621214707.179,-37.109,-25.879,-45.410,-19.043,0.000
1621214707.183,-35.645,-31.250,-56.641,-30.273,0.000
1621214707.187,-14.648,-29.297,-50.293,-25.879,0.000
1621214707.191,-15.625,-30.762,-42.480,-18.555,0.000
1621214707.195,-9.277,-26.367,-38.574,-16.113,0.000
1621214707.198,-4.883,-17.578,-28.809,-17.578,0.000
1621214707.202,-16.602,-15.625,-27.832,-22.949,0.000
1621214707.206,-30.762,-18.555,-34.668,-23.926,0.000
1621214707.210,-18.555,-24.414,-24.902,-18.555,0.000
1621214707.214,-11.230,-28.320,-27.832,-24.902,0.000
1621214707.218,-20.020,-24.902,-37.109,-31.250,0.000
1621214707.222,-17.090,-25.391,-29.785,-21.973,0.000
1621214707.226,-10.254,-26.855,-25.391,-20.996,0.000
1621214707.230,-8.301,-28.320,-30.762,-28.809,0.000
1621214707.234,-8.301,-30.273,-38.574,-27.832,0.000
1621214707.237,-10.254,-34.180,-38.086,-17.090,0.000
1621214707.241,-12.695,-34.180,-35.156,-13.672,0.000
1621214707.245,-22.949,-22.461,-35.156,-20.508,0.000
1621214707.249,-29.297,-27.344,-42.480,-25.391,0.000
1621214707.253,-28.809,-34.668,-44.434,-31.250,0.000
1621214707.257,-22.461,-28.809,-44.434,-31.738,0.000
1621214707.261,-10.254,-26.855,-41.992,-25.391,0.000
1621214707.265,-12.207,-25.879,-31.738,-21.973,0.000
1621214707.269,-6.836,-26.855,-27.832,-16.113,0.000
1621214707.273,-11.230,-34.668,-29.297,-21.484,0.000
1621214707.277,-19.531,-35.645,-40.039,-32.715,0.000
1621214707.280,-14.648,-27.344,-55.664,-30.273,0.000
1621214707.284,-17.578,-29.297,-44.922,-24.414,0.000
1621214707.288,-25.879,-35.645,-25.879,-27.832,0.000
1621214707.292,-33.691,-34.180,-28.809,-36.621,0.000
1621214707.296,-21.973,-27.344,-36.133,-35.645,0.000
1621214707.300,-26.855,-27.344,-34.668,-31.738,0.000
1621214707.304,-40.039,-32.715,-37.598,-29.297,0.000
1621214707.308,-24.414,-34.180,-35.156,-32.715,0.000
1621214707.312,-23.926,-34.180,-33.203,-40.039,0.000
1621214707.316,-27.344,-36.133,-38.086,-36.133,0.000
1621214707.320,-29.785,-37.109,-40.039,-29.785,0.000
1621214707.323,-12.695,-33.691,-37.109,-26.855,0.000
1621214707.327,-11.230,-35.645,-40.039,-35.156,0.000
1621214707.331,-26.855,-32.715,-37.109,-38.086,0.000
1621214707.335,-29.785,-29.297,-31.738,-30.762,0.000
1621214707.339,-18.066,-26.367,-34.180,-32.227,0.000
1621214707.343,-20.996,-24.414,-36.621,-28.809,0.000
1621214707.347,-29.297,-28.320,-33.691,-20.996,0.000
1621214707.351,-19.043,-32.227,-36.133,-31.250,0.000
1621214707.355,-20.020,-37.598,-43.457,-41.992,0.000
1621214707.359,-24.414,-37.109,-30.273,-36.621,0.000
1621214707.362,-20.996,-35.156,-21.484,-31.738,0.000
1621214707.366,-21.484,-35.645,-21.484,-32.715,0.000
1621214707.370,-21.484,-34.180,-27.344,-25.879,0.000
1621214707.374,-15.625,-33.691,-42.480,-21.484,0.000
1621214707.378,-13.184,-33.691,-48.828,-31.738,0.000
1621214707.382,-9.766,-33.691,-41.992,-36.133,0.000
1621214707.386,-2.930,-31.250,-38.086,-26.855,0.000
1621214707.390,-12.207,-35.645,-39.551,-21.484,0.000
1621214707.394,-22.461,-41.016,-35.645,-24.902,0.000
1621214707.398,-15.137,-42.480,-36.621,-24.414,0.000
1621214707.402,-11.719,-45.898,-45.410,-21.973,0.000
1621214707.405,-13.184,-47.852,-34.180,-22.461,0.000
1621214707.409,-14.648,-47.363,-39.551,-35.156,0.000
1621214707.413,-27.344,-39.551,-46.387,-38.086,0.000
1621214707.417,-36.133,-38.574,-22.461,-23.438,0.000
1621214707.421,-19.531,-39.062,-15.625,-18.066,0.000
1621214707.425,-5.371,-37.109,-29.297,-27.344,0.000
1621214707.429,-12.695,-40.039,-38.574,-33.691,0.000
1621214707.433,-26.367,-41.504,-34.180,-34.180,0.000
1621214707.437,-30.762,-38.086,-22.461,-28.809,0.000
1621214707.441,-23.438,-36.621,-30.273,-29.785,0.000
1621214707.444,-30.762,-40.039,-44.434,-37.598,0.000
1621214707.448,-43.945,-39.551,-36.133,-40.527,0.000
1621214707.452,-33.691,-36.621,-26.855,-40.039,0.000
1621214707.456,-23.926,-35.645,-25.879,-34.180,0.000
1621214707.460,-18.555,-32.227,-14.160,-31.250,0.000
1621214707.464,-23.926,-32.227,-31.738,-38.574,0.000
1621214707.468,-31.738,-33.203,-48.340,-35.645,0.000
1621214707.472,-28.809,-31.250,-36.621,-32.227,0.000
1621214707.476,-19.043,-29.785,-37.598,-36.133,0.000
1621214707.480,-4.395,-30.273,-39.062,-24.414,0.000
1621214707.484,-4.883,-31.738,-45.898,-22.949,0.000
1621214707.487,-13.672,-23.926,-41.992,-24.902,0.000
1621214707.491,-4.883,-19.043,-37.598,-22.461,0.000
1621214707.495,-6.348,-25.879,-51.758,-27.344,0.000
1621214707.499,-13.184,-32.715,-64.941,-24.902,0.000
1621214707.503,-17.578,-30.273,-59.082,-29.785,0.000
1621214707.507,-23.438,-29.785,-35.645,-31.738,0.000
1621214707.511,-22.461,-32.227,-33.203,-34.668,0.000
1621214707.515,-18.555,-30.273,-37.598,-35.645,0.000
1621214707.519,-17.090,-27.832,-37.109,-21.484,0.000
1621214707.523,-9.277,-28.320,-27.832,-18.066,0.000
1621214707.527,-9.277,-28.809,-35.645,-26.855,0.000
1621214707.530,-28.809,-28.320,-50.781,-39.062,0.000
1621214707.534,-18.555,-30.762,-44.922,-32.715,0.000
1621214707.538,-8.789,-35.645,-36.621,-18.066,0.000
1621214707.542,-11.719,-30.273,-32.715,-18.555,0.000
1621214707.546,-13.184,-30.273,-49.316,-31.738,0.000
1621214707.550,-26.367,-36.133,-57.129,-42.480,0.000
1621214707.554,-26.367,-27.344,-33.691,-41.016,0.000
1621214707.558,-21.973,-25.391,-22.949,-36.621,0.000
1621214707.562,-21.973,-25.879,-29.297,-35.645,0.000
1621214707.566,-21.973,-25.391,-38.574,-40.527,0.000
1621214707.569,-22.461,-29.297,-34.180,-28.320,0.000
1621214707.573,-24.414,-25.391,-33.203,-30.762,0.000
1621214707.577,-42.480,-24.414,-45.898,-60.547,0.000
1621214707.581,-55.176,-25.879,-43.457,-62.500,0.000
1621214707.585,-56.152,-25.879,-45.410,-58.594,0.000
1621214707.589,-57.129,-22.461,-53.223,-70.801,0.000
1621214707.593,-57.129,-19.531,-42.969,-80.566,0.000
1621214707.597,-70.312,-20.020,-46.875,-97.656,0.000
1621214707.601,-74.219,-12.695,-57.129,-100.098,0.000
1621214707.605,-78.125,-10.742,-48.340,-99.609,0.000
1621214707.609,-99.121,-12.207,-43.945,-118.652,0.000
1621214707.612,-107.422,-12.695,-39.062,-126.465,0.000
1621214707.616,-104.004,-14.648,-30.273,-124.512,0.000
1621214707.620,-113.770,-9.766,-38.086,-133.301,0.000
1621214707.624,-129.883,-5.859,-29.297,-146.973,0.000
1621214707.628,-128.418,-5.371,-19.043,-157.715,0.000
1621214707.632,-130.859,-6.836,-27.344,-160.156,0.000
1621214707.636,-142.090,-7.812,-32.715,-157.227,0.000
1621214707.640,-153.809,-8.301,-39.551,-166.504,0.000
1621214707.644,-156.738,-4.395,-27.344,-177.734,0.000
1621214707.648,-153.320,-3.906,-29.785,-174.805,0.000
1621214707.652,-160.156,-2.441,-38.086,-169.922,0.000
1621214707.655,-156.250,-1.953,-34.180,-160.156,0.000
1621214707.659,-155.762,-14.160,-34.180,-158.691,0.000
1621214707.663,-154.297,-14.648,-20.508,-156.250,0.000
1621214707.667,-130.859,-11.719,-4.395,-137.207,0.000
1621214707.671,-119.141,-17.578,-22.949,-121.582,0.000
1621214707.675,-110.840,-22.949,-52.246,-113.770,0.000
1621214707.679,-102.051,-25.879,-46.875,-120.117,0.000
1621214707.683,-102.051,-32.715,-30.273,-115.723,0.000
1621214707.687,-93.262,-32.227,-26.855,-98.633,0.000
1621214707.691,-83.496,-23.926,-27.832,-91.797,0.000
1621214707.694,-80.566,-20.508,-25.879,-89.844,0.000
1621214707.698,-58.594,-22.461,-38.574,-75.195,0.000
1621214707.702,-44.434,-27.832,-30.273,-50.781,0.000
1621214707.706,-41.992,-26.855,-56.641,-37.598,0.000
1621214707.710,-32.227,-27.832,-78.613,-45.410,0.000
1621214707.714,-20.996,-26.367,-35.156,-40.527,0.000
1621214707.718,-9.766,-26.367,-21.973,-20.508,0.000
1621214707.722,-3.418,-27.344,-24.902,-11.719,0.000
1621214707.726,3.906,-26.367,-47.363,-10.254,0.000
1621214707.730,-1.953,-30.762,-58.594,-16.113,0.000
1621214707.734,-2.930,-34.668,-49.805,-20.508,0.000
1621214707.737,17.578,-35.156,-37.109,-3.906,0.000
1621214707.741,18.066,-30.273,-30.273,1.465,0.000
1621214707.745,20.508,-30.762,-61.035,4.395,0.000
1621214707.749,21.484,-29.785,-79.590,7.812,0.000
1621214707.753,21.973,-28.809,-54.688,8.789,0.000
1621214707.757,20.508,-33.203,-45.410,7.812,0.000
1621214707.761,15.625,-35.645,-43.945,7.324,0.000
1621214707.765,26.855,-31.250,-40.527,17.578,0.000
1621214707.769,30.762,-29.297,-34.180,15.137,0.000
1621214707.773,31.738,-30.273,-35.645,15.137,0.000
1621214707.776,31.738,-32.227,-40.039,10.742,0.000
1621214707.780,30.762,-29.785,-40.039,13.184,0.000
1621214707.784,38.574,-26.367,-30.273,24.902,0.000
1621214707.788,42.480,-27.344,-23.926,26.367,0.000
1621214707.792,42.969,-23.438,-51.758,26.367,0.000
1621214707.796,38.574,-22.461,-42.969,14.648,0.000
1621214707.800,29.297,-29.297,-29.297,7.812,0.000
1621214707.804,19.531,-30.273,-40.527,14.160,0.000
1621214707.808,22.461,-24.414,-37.598,13.184,0.000
1621214707.812,28.809,-28.320,-37.109,14.648,0.000
1621214707.816,24.414,-32.715,-49.316,12.207,0.000
1621214707.819,25.879,-29.785,-38.086,11.230,0.000
1621214707.823,25.879,-32.227,-22.949,12.207,0.000
1621214707.827,21.484,-31.250,-27.344,8.789,0.000
1621214707.831,20.508,-25.391,-24.902,10.254,0.000
1621214707.835,25.391,-24.902,-20.996,13.672,0.000
1621214707.839,23.438,-25.879,-21.484,12.695,0.000
1621214707.843,17.578,-32.227,-40.039,4.395,0.000
1621214707.847,13.672,-37.598,-54.199,-2.930,0.000
1621214707.851,13.184,-35.645,-45.898,-6.348,0.000
1621214707.855,16.602,-32.715,-39.551,0.977,0.000
1621214707.859,7.812,-36.621,-28.320,0.977,0.000
1621214707.862,5.371,-34.180,-20.020,-1.465,0.000
1621214707.866,11.230,-28.809,-27.344,2.441,0.000
1621214707.870,15.137,-32.227,-36.133,11.719,0.000
1621214707.874,9.277,-32.227,-39.551,2.930,0.000
1621214707.878,-2.930,-31.738,-40.527,-6.836,0.000
1621214707.882,-1.953,-33.203,-39.551,-0.488,0.000
1621214707.886,0.977,-31.738,-42.969,2.930,0.000
1621214707.890,-4.883,-35.645,-45.410,0.977,0.000
1621214707.894,-2.441,-41.992,-32.227,-1.953,0.000
1621214707.898,5.371,-40.527,-35.645,-9.766,0.000
1621214707.901,11.230,-34.180,-50.293,-5.371,0.000
1621214707.905,16.113,-33.203,-46.387,7.812,0.000
1621214707.909,8.301,-36.621,-44.922,2.441,0.000
1621214707.913,7.812,-36.621,-30.762,-7.324,0.000
1621214707.917,14.648,-33.691,-23.926,1.953,0.000
1621214707.921,18.555,-25.391,-26.855,9.766,0.000
1621214707.925,22.461,-25.391,-21.973,12.207,0.000
1621214707.929,15.137,-31.738,-54.199,2.930,0.000
1621214707.933,0.000,-33.691,-51.758,-1.465,0.000
1621214707.937,1.465,-33.203,-19.531,12.207,0.000
1621214707.941,-2.930,-36.133,-26.855,5.371,0.000
1621214707.944,-4.395,-34.180,-32.227,-3.418,0.000
1621214707.948,0.000,-34.180,-43.945,-1.953,0.000
1621214707.952,-9.277,-37.109,-53.223,-10.254,0.000
1621214707.956,-10.254,-36.133,-38.086,-13.672,0.000
1621214707.960,-11.719,-35.156,-39.062,-13.672,0.000
1621214707.964,-14.160,-35.156,-39.062,-18.066,0.000
1621214707.968,-16.113,-36.621,-24.902,-20.020,0.000
1621214707.972,-20.020,-42.480,-25.391,-22.461,0.000
1621214707.976,-22.461,-45.410,-32.715,-23.926,0.000
1621214707.980,-26.367,-41.504,-36.133,-25.879,0.000
1621214707.984,-21.484,-41.504,-43.945,-36.133,0.000
1621214707.987,-11.230,-35.156,-48.828,-33.691,0.000
1621214707.991,-17.578,-41.016,-48.828,-23.926,0.000
1621214707.995,-22.461,-47.852,-41.992,-31.250,0.000
1621214707.999,-18.066,-39.551,-41.992,-38.574,0.000
1621214708.003,-21.973,-40.527,-40.527,-32.227,0.000
1621214708.007,-26.855,-42.480,-38.086,-33.691,0.000
1621214708.011,-31.250,-40.527,-46.875,-51.270,0.000
1621214708.015,-32.715,-39.062,-43.457,-48.828,0.000
1621214708.019,-29.785,-38.086,-36.133,-35.645,0.000
1621214708.023,-26.855,-38.086,-36.133,-26.855,0.000
1621214708.026,-27.344,-33.203,-30.762,-31.738,0.000
1621214708.030,-19.043,-28.809,-29.297,-37.109,0.000
1621214708.034,-8.789,-29.785,-48.340,-31.250,0.000
1621214708.038,-10.742,-30.273,-50.781,-27.832,0.000
1621214708.042,-22.949,-30.273,-49.316,-28.809,0.000
1621214708.046,-19.531,-34.180,-39.551,-25.391,0.000
1621214708.050,-16.113,-36.621,-33.203,-22.461,0.000
1621214708.054,-24.902,-34.180,-37.598,-23.926,0.000
1621214708.058,-19.531,-28.809,-33.203,-27.832,0.000
1621214708.062,-16.113,-30.762,-54.199,-31.738,0.000
1621214708.066,-22.949,-38.086,-49.805,-29.785,0.000
1621214708.069,-23.438,-35.156,-27.344,-27.344,0.000
1621214708.073,-25.391,-30.273,-22.461,-32.227,0.000
1621214708.077,-29.785,-30.273,-19.043,-34.180,0.000
1621214708.081,-27.344,-27.344,-28.809,-29.785,0.000
1621214708.085,-20.508,-25.879,-45.410,-24.414,0.000
1621214708.089,-23.926,-30.762,-32.227,-24.902,0.000
1621214708.093,-26.367,-39.551,-14.648,-35.645,0.000
1621214708.097,-22.461,-36.621,-21.973,-41.992,0.000
1621214708.101,-19.531,-29.785,-21.484,-38.086,0.000
1621214708.105,-20.508,-28.809,-18.555,-42.480,0.000
1621214708.109,-30.273,-35.645,-36.621,-48.340,0.000
1621214708.112,-31.738,-51.758,-53.223,-55.176,0.000
1621214708.116,-31.250,-48.828,-37.109,-59.082,0.000
1621214708.120,-24.902,-39.062,-26.367,-43.945,0.000
1621214708.124,-25.391,-36.621,-26.367,-35.645,0.000
1621214708.128,-21.484,-36.621,-22.949,-37.598,0.000
1621214708.132,-11.719,-35.156,-25.879,-32.715,0.000
1621214708.136,-15.137,-33.203,-48.828,-35.645,0.000
1621214708.140,-14.160,-37.598,-53.223,-40.527,0.000
1621214708.144,-11.230,-28.809,-35.156,-34.180,0.000
1621214708.148,-9.277,-27.832,-41.016,-38.086,0.000
1621214708.151,-9.766,-40.039,-30.762,-35.156,0.000
1621214708.155,-13.672,-39.551,-19.043,-29.297,0.000
1621214708.159,-18.555,-41.504,-33.203,-38.574,0.000
1621214708.163,-16.602,-40.039,-38.086,-57.617,0.000
1621214708.167,-25.879,-43.945,-30.762,-63.477,0.000
1621214708.171,-31.738,-56.152,-36.621,-49.316,0.000
1621214708.175,-22.949,-46.387,-21.484,-41.992,0.000
1621214708.179,-18.555,-40.039,-20.996,-51.270,0.000
1621214708.183,-17.578,-42.969,-49.805,-54.199,0.000
1621214708.187,-15.625,-42.969,-37.598,-41.016,0.000
1621214708.191,-18.555,-42.480,-26.855,-41.016,0.000
1621214708.194,-10.254,-40.527,-37.598,-48.828,0.000
1621214708.198,-7.812,-43.457,-27.344,-42.969,0.000
1621214708.202,-15.137,-39.551,-15.137,-35.645,0.000
1621214708.206,-6.348,-32.227,-23.926,-35.645,0.000
1621214708.210,-11.719,-40.527,-25.879,-32.715,0.000
1621214708.214,-14.160,-44.922,-18.066,-38.086,0.000
1621214708.218,-10.742,-38.086,-36.133,-37.598,0.000
1621214708.222,-16.113,-36.133,-38.086,-19.043,0.000
1621214708.226,-24.414,-41.504,-25.391,-14.160,0.000
1621214708.230,-21.484,-40.527,-25.391,-16.113,0.000
1621214708.233,-12.207,-34.180,-21.973,-14.648,0.000
1621214708.237,-14.648,-36.133,-24.902,-20.508,0.000
1621214708.241,-15.625,-37.109,-41.992,-22.949,0.000
1621214708.245,-11.230,-41.016,-36.621,-27.344,0.000
1621214708.249,-3.906,-41.992,-34.668,-23.438,0.000
1621214708.253,-7.324,-40.527,-34.668,-16.602,0.000
1621214708.257,-9.766,-46.387,-18.555,-18.555,0.000
1621214708.261,-7.324,-46.875,-18.066,-6.836,0.000
1621214708.265,-9.766,-41.016,-25.391,-7.812,0.000
1621214708.269,-13.672,-38.086,-34.668,-11.719,0.000
1621214708.273,-8.301,-39.062,-45.410,2.441,0.000
1621214708.276,-1.953,-39.551,-32.227,2.441,0.000
1621214708.280,-3.906,-38.086,-20.020,-3.906,0.000
1621214708.284,-4.395,-35.645,-23.926,-6.348,0.000
1621214708.288,-5.371,-36.133,-36.133,-6.836,0.000
1621214708.292,-3.906,-40.527,-21.973,-4.883,0.000
1621214708.296,2.930,-36.621,-22.949,-13.672,0.000
1621214708.300,1.465,-32.227,-49.316,-16.602,0.000
1621214708.304,-2.930,-32.715,-44.434,-11.230,0.000
1621214708.308,-5.859,-32.715,-34.668,-17.090,0.000
1621214708.312,-2.441,-31.250,-33.203,-14.160,0.000
1621214708.316,-14.648,-32.715,-40.527,-14.648,0.000
1621214708.319,-22.949,-36.621,-44.434,-10.742,0.000
1621214708.323,-17.578,-35.645,-31.738,-5.371,0.000
1621214708.327,-21.484,-32.227,-24.902,-20.508,0.000
1621214708.331,-20.020,-30.762,-19.531,-23.438,0.000
1621214708.335,-23.926,-30.762,-25.391,-16.113,0.000
1621214708.339,-26.855,-32.227,-39.062,-14.648,0.000
1621214708.343,-22.949,-36.133,-30.273,-17.578,0.000
1621214708.347,-10.254,-35.156,-27.344,-24.414,0.000
1621214708.351,-8.301,-33.691,-29.297,-11.230,0.000
1621214708.355,-20.020,-34.668,-34.668,-8.789,0.000
1621214708.358,-13.672,-32.715,-51.270,-21.973,0.000
1621214708.362,-8.789,-35.156,-50.293,-25.391,0.000
1621214708.366,-20.996,-41.504,-44.434,-29.297,0.000
1621214708.370,-25.879,-38.086,-39.062,-34.668,0.000
1621214708.374,-22.949,-41.016,-26.855,-35.645,0.000
1621214708.378,-24.902,-42.480,-35.156,-25.879,0.000
1621214708.382,-27.344,-37.598,-39.551,-26.855,0.000
1621214708.386,-29.297,-37.598,-38.574,-24.414,0.000
1621214708.390,-27.832,-35.156,-37.109,-12.695,0.000
1621214708.394,-30.273,-35.645,-23.926,-5.859,0.000
1621214708.398,-31.250,-41.504,-28.809,-14.648,0.000
1621214708.401,-21.484,-37.598,-33.203,-21.973,0.000
1621214708.405,-17.090,-40.039,-35.156,-16.113,0.000
1621214708.409,-20.020,-36.133,-43.945,-8.301,0.000
1621214708.413,-24.414,-27.832,-46.387,-8.789,0.000
1621214708.417,-28.320,-26.855,-65.918,-20.508,0.000
1621214708.421,-20.996,-25.391,-58.594,-23.438,0.000
1621214708.425,-18.555,-33.691,-24.902,-24.414,0.000
1621214708.429,-17.090,-37.598,-31.250,-26.855,0.000
1621214708.433,-15.625,-35.645,-32.715,-39.551,0.000
1621214708.437,-33.691,-37.109,-24.414,-47.363,0.000
1621214708.441,-31.738,-31.738,-32.227,-23.438,0.000
1621214708.444,-27.344,-33.203,-24.414,-22.949,0.000
1621214708.448,-33.691,-39.551,-25.879,-37.598,0.000
1621214708.452,-37.109,-38.574,-35.156,-32.227,0.000
1621214708.456,-32.715,-36.133,-29.785,-25.391,0.000
1621214708.460,-27.832,-38.086,-49.805,-41.992,0.000
1621214708.464,-28.809,-35.645,-56.641,-58.105,0.000
1621214708.468,-27.344,-31.738,-29.297,-50.293,0.000
1621214708.472,-27.344,-31.250,-22.949,-45.410,0.000
1621214708.476,-32.227,-29.785,-34.180,-55.176,0.000
1621214708.480,-28.320,-31.738,-36.621,-49.805,0.000
1621214708.484,-26.855,-36.133,-36.621,-44.434,0.000
1621214708.487,-34.668,-35.645,-48.340,-38.574,0.000
1621214708.491,-33.203,-30.762,-48.828,-40.527,0.000
1621214708.495,-22.949,-31.738,-34.180,-46.387,0.000
1621214708.499,-21.484,-31.738,-20.020,-38.086,0.000
1621214708.503,-22.461,-31.250,-23.926,-35.156,0.000
1621214708.507,-26.855,-38.574,-44.922,-32.227,0.000
1621214708.511,-29.785,-43.457,-40.039,-23.438,0.000
1621214708.515,-21.973,-39.551,-31.738,-16.602,0.000
1621214708.519,-12.695,-33.203,-40.527,-20.020,0.000
1621214708.523,-24.414,-31.738,-34.180,-24.414,0.000
1621214708.526,-20.996,-34.180,-32.227,-15.137,0.000
1621214708.530,-22.949,-35.156,-46.875,-13.672,0.000
1621214708.534,-30.762,-37.109,-40.527,-14.648,0.000
1621214708.538,-27.832,-37.109,-37.598,-17.578,0.000
1621214708.542,-29.785,-38.574,-47.363,-16.602,0.000
1621214708.546,-28.809,-36.133,-31.738,-14.160,0.000
1621214708.550,-28.320,-30.762,-29.297,-17.090,0.000
1621214708.554,-35.156,-35.645,-34.668,-18.066,0.000
1621214708.558,-31.250,-41.016,-27.832,-20.508,0.000
1621214708.562,-24.902,-40.039,-26.367,-16.602,0.000
1621214708.565,-31.250,-34.180,-27.832,-13.672,0.000
1621214708.569,-15.137,-30.762,-24.902,-5.859,0.000
1621214708.573,-20.020,-35.156,-30.273,-6.348,0.000
1621214708.577,-35.645,-35.645,-48.828,-19.531,0.000
1621214708.581,-31.250,-36.133,-54.199,-30.273,0.000
1621214708.585,-27.832,-34.180,-40.527,-24.902,0.000
1621214708.589,-30.762,-32.715,-45.410,-18.555,0.000
1621214708.593,-33.691,-34.180,-53.711,-29.785,0.000
1621214708.597,-30.273,-34.668,-36.621,-28.320,0.000
1621214708.601,-19.043,-34.668,-25.879,-18.066,0.000
1621214708.605,-2.441,-29.297,-24.902,-2.930,0.000
1621214708.608,-10.742,-29.785,-31.738,-4.883,0.000
1621214708.612,-28.809,-30.273,-42.480,-19.043,0.000
1621214708.616,-28.320,-31.738,-47.852,-15.137,0.000
1621214708.620,-20.508,-31.738,-38.086,-9.277,0.000
1621214708.624,-15.137,-28.809,-32.715,-10.254,0.000
1621214708.628,-15.625,-28.320,-37.598,-19.043,0.000
1621214708.632,-23.438,-25.391,-38.086,-20.508,0.000
1621214708.636,-28.809,-26.855,-28.320,-15.137,0.000
1621214708.640,-24.902,-32.715,-35.156,-15.625,0.000
1621214708.644,-17.090,-36.621,-48.828,-18.555,0.000
1621214708.648,-23.926,-39.551,-40.527,-28.320,0.000
1621214708.651,-17.578,-37.109,-33.203,-20.020,0.000
1621214708.655,-7.812,-35.156,-37.109,-14.648,0.000
1621214708.659,-8.789,-33.691,-29.297,-20.020,0.000
1621214708.663,-2.930,-24.414,-21.484,-17.578,0.000
1621214708.667,-1.953,-21.484,-36.621,-11.230,0.000
1621214708.671,2.441,-18.555,-39.551,-3.906,0.000
1621214708.675,-0.977,-17.578,-32.227,-3.906,0.000
1621214708.679,-3.418,-18.066,-35.156,-14.160,0.000
1621214708.683,-17.578,-17.090,-33.203,-23.926,0.000
1621214708.687,-22.461,-20.508,-26.855,-20.020,0.000
1621214708.690,-12.207,-23.926,-32.227,-19.043,0.000
1621214708.694,-20.996,-27.832,-29.297,-20.020,0.000
1621214708.698,-35.156,-28.320,-27.344,-24.902,0.000
1621214708.702,-32.227,-26.367,-34.668,-26.367,0.000
1621214708.706,-19.043,-28.320,-44.434,-19.531,0.000
1621214708.710,-23.926,-31.250,-40.527,-18.555,0.000
1621214708.714,-27.832,-26.367,-19.043,-26.367,0.000
1621214708.718,-26.367,-22.461,-17.578,-28.809,0.000
1621214708.722,-19.531,-25.879,-22.949,-24.902,0.000
1621214708.726,-18.555,-25.879,-21.973,-26.855,0.000
1621214708.730,-25.879,-27.832,-31.738,-34.180,0.000
1621214708.733,-15.625,-28.320,-39.062,-28.809,0.000
1621214708.737,-7.324,-27.344,-30.762,-17.090,0.000
1621214708.741,-19.043,-30.762,-40.527,-16.602,0.000
1621214708.745,-27.832,-32.227,-45.410,-28.320,0.000
1621214708.749,-21.484,-32.227,-30.273,-28.809,0.000
1621214708.753,-14.160,-28.809,-23.438,-18.066,0.000
1621214708.757,-12.207,-30.273,-25.391,-12.207,0.000
1621214708.761,-15.137,-32.715,-36.621,-19.043,0.000
1621214708.765,-24.414,-34.180,-44.922,-25.391,0.000
1621214708.769,-20.996,-38.086,-46.387,-20.996,0.000
1621214708.773,-12.695,-34.180,-40.527,-16.113,0.000
1621214708.776,-15.625,-35.156,-41.016,-21.484,0.000
1621214708.780,-17.578,-31.738,-40.039,-24.414,0.000
1621214708.784,-12.207,-27.344,-30.762,-19.531,0.000
1621214708.788,-7.812,-35.645,-38.574,-18.555,0.000
1621214708.792,-13.672,-38.086,-48.340,-24.902,0.000
1621214708.796,-16.602,-32.227,-39.062,-23.926,0.000
1621214708.800,-16.602,-32.227,-21.484,-20.020,0.000
1621214708.804,-17.578,-31.738,-21.484,-21.973,0.000
1621214708.808,-16.113,-27.832,-26.855,-27.344,0.000
1621214708.812,-23.926,-31.250,-26.855,-30.762,0.000
1621214708.816,-27.344,-36.133,-32.227,-27.344,0.000
1621214708.819,-29.297,-33.203,-34.180,-25.391,0.000
1621214708.823,-36.621,-29.297,-28.809,-27.832,0.000
1621214708.827,-34.668,-27.832,-24.414,-28.809,0.000
1621214708.831,-29.297,-30.762,-18.555,-25.879,0.000
1621214708.835,-31.738,-34.668,-39.062,-29.297,0.000
1621214708.839,-30.762,-29.785,-53.223,-27.832,0.000
1621214708.843,-25.879,-26.367,-27.344,-23.926,0.000
1621214708.847,-30.762,-29.785,-33.691,-25.391,0.000
1621214708.851,-34.180,-27.344,-58.594,-32.227,0.000
1621214708.855,-31.250,-30.762,-48.340,-34.668,0.000
1621214708.858,-33.203,-38.574,-38.574,-30.273,0.000
1621214708.862,-33.203,-37.598,-30.273,-24.902,0.000
1621214708.866,-34.180,-33.691,-24.414,-35.156,0.000
1621214708.870,-40.527,-34.180,-31.738,-41.992,0.000
1621214708.874,-38.086,-41.504,-34.668,-38.086,0.000
1621214708.878,-36.133,-39.551,-43.457,-42.969,0.000
1621214708.882,-37.109,-33.203,-45.410,-42.969,0.000
1621214708.886,-38.086,-35.156,-41.504,-42.969,0.000
1621214708.890,-34.180,-34.180,-45.410,-34.668,0.000
1621214708.894,-28.809,-27.832,-36.621,-30.273,0.000
1621214708.897,-33.203,-24.902,-37.109,-47.363,0.000
1621214708.901,-30.273,-29.297,-40.527,-36.133,0.000
1621214708.905,-27.344,-33.691,-34.668,-27.344,0.000
1621214708.909,-23.926,-34.668,-38.086,-32.715,0.000
1621214708.913,-20.996,-33.203,-43.457,-24.414,0.000
1621214708.917,-24.414,-34.180,-39.062,-21.484,0.000
1621214708.921,-30.762,-38.574,-42.480,-18.066,0.000
1621214708.925,-28.320,-34.668,-35.156,-19.043,0.000
1621214708.929,-29.297,-30.762,-27.344,-25.391,0.000
1621214708.933,-26.855,-32.227,-29.297,-20.020,0.000
1621214708.937,-16.602,-32.715,-26.367,-7.812,0.000
1621214708.940,-28.809,-37.109,-41.016,-17.578,0.000
1621214708.944,-29.297,-32.715,-46.387,-31.250,0.000
1621214708.948,-16.113,-28.320,-34.668,-31.250,0.000
1621214708.952,-17.578,-34.180,-43.457,-34.180,0.000
1621214708.956,-21.973,-31.250,-44.434,-30.762,0.000
1621214708.960,-21.484,-31.250,-37.598,-31.250,0.000
1621214708.964,-9.766,-34.180,-27.344,-30.762,0.000
1621214708.968,-8.789,-31.250,-40.039,-20.996,0.000
1621214708.972,-18.555,-32.715,-52.246,-20.508,0.000
1621214708.976,-19.043,-34.668,-31.250,-26.855,0.000
1621214708.980,-25.879,-39.062,-28.809,-24.414,0.000
1621214708.983,-38.574,-39.062,-29.785,-23.926,0.000
1621214708.987,-34.668,-34.668,-28.809,-32.227,0.000
1621214708.991,-33.203,-35.645,-44.434,-26.855,0.000
1621214708.995,-40.039,-36.621,-45.898,-20.996,0.000
1621214708.999,-27.832,-33.203,-34.668,-15.137,0.000
1621214709.003,-19.531,-28.809,-29.785,-8.789,0.000
1621214709.007,-23.926,-28.809,-25.879,-10.254,0.000
1621214709.011,-24.902,-34.180,-26.367,-22.949,0.000
1621214709.015,-27.832,-35.156,-32.227,-28.809,0.000
1621214709.019,-21.973,-29.297,-27.344,-17.578,0.000
1621214709.023,-20.508,-32.227,-32.227,-6.348,0.000
1621214709.026,-21.973,-32.715,-38.086,-6.348,0.000
1621214709.030,-13.672,-27.344,-28.809,-20.020,0.000
1621214709.034,-11.719,-27.832,-26.855,-27.344,0.000
1621214709.038,-14.648,-28.809,-30.762,-22.949,0.000
1621214709.042,-13.672,-27.832,-37.109,-20.508,0.000
1621214709.046,-18.555,-27.344,-36.133,-27.832,0.000
1621214709.050,-18.555,-27.832,-34.668,-28.320,0.000
1621214709.054,-11.719,-26.855,-34.668,-12.207,0.000
1621214709.058,-11.719,-26.855,-26.367,-9.277,0.000
1621214709.062,-13.184,-24.902,-33.691,-16.602,0.000
1621214709.065,-15.137,-27.344,-47.852,-20.508,0.000
1621214709.069,-13.184,-29.785,-41.016,-16.602,0.000
1621214709.073,-17.578,-24.902,-27.344,-12.695,0.000
1621214709.077,-20.508,-29.297,-43.457,-21.484,0.000
1621214709.081,-18.066,-31.250,-54.199,-28.320,0.000
1621214709.085,-13.184,-24.902,-29.297,-28.809,0.000
1621214709.089,-10.742,-25.879,-20.508,-15.625,0.000
1621214709.093,-17.578,-27.344,-27.832,-17.090,0.000
1621214709.097,-21.484,-28.320,-23.438,-22.949,0.000
1621214709.101,-27.344,-30.762,-19.531,-24.902,0.000
1621214709.105,-32.227,-31.250,-39.551,-21.973,0.000
1621214709.108,-34.180,-29.785,-51.270,-21.973,0.000
1621214709.112,-26.367,-28.809,-41.992,-24.902,0.000
1621214709.116,-22.461,-29.785,-30.273,-19.043,0.000
1621214709.120,-25.391,-35.156,-28.320,-18.555,0.000
1621214709.124,-26.855,-37.598,-42.480,-22.461,0.000
1621214709.128,-20.996,-34.180,-43.945,-22.461,0.000
1621214709.132,-13.184,-31.250,-24.414,-21.484,0.000
1621214709.136,-15.625,-29.297,-27.344,-23.926,0.000
1621214709.140,-12.207,-29.785,-31.250,-12.207,0.000
1621214709.144,-10.254,-31.250,-32.715,-15.625,0.000
1621214709.148,-11.230,-31.250,-41.992,-19.531,0.000
1621214709.151,-8.301,-28.809,-37.109,-13.184,0.000
1621214709.155,-12.695,-32.227,-33.691,-12.695,0.000
1621214709.159,-14.160,-36.621,-31.738,-20.020,0.000
1621214709.163,-16.602,-35.645,-38.086,-25.879,0.000
1621214709.167,-21.484,-39.551,-41.504,-27.344,0.000
1621214709.171,-22.461,-42.480,-38.574,-18.066,0.000
1621214709.175,-20.020,-36.133,-43.945,-13.184,0.000
1621214709.179,-20.508,-37.109,-37.109,-16.602,0.000
1621214709.183,-12.695,-33.691,-34.180,-14.160,0.000
1621214709.187,-9.766,-31.738,-46.387,-16.602,0.000
1621214709.190,-16.602,-36.621,-47.363,-20.996,0.000
1621214709.194,-16.113,-36.133,-29.785,-32.227,0.000
1621214709.198,-11.719,-30.762,-35.156,-35.645,0.000
1621214709.202,-9.766,-28.809,-49.805,-23.926,0.000
1621214709.206,-10.254,-31.250,-43.945,-19.531,0.000
1621214709.210,-20.996,-38.086,-43.457,-25.391,0.000
1621214709.214,-32.227,-41.992,-33.203,-29.785,0.000
1621214709.218,-27.344,-33.691,-38.086,-23.926,0.000
1621214709.222,-27.832,-29.297,-46.875,-19.531,0.000
1621214709.226,-28.320,-25.879,-28.320,-22.949,0.000
1621214709.229,-26.855,-28.809,-25.879,-31.250,0.000
1621214709.233,-24.414,-30.273,-24.414,-32.227,0.000
1621214709.237,-24.902,-25.879,-25.391,-23.438,0.000
1621214709.241,-23.926,-29.297,-41.992,-22.461,0.000
1621214709.245,-19.043,-31.250,-50.781,-31.738,0.000
1621214709.249,-17.090,-32.715,-31.738,-29.297,0.000
1621214709.253,-22.949,-37.109,-30.273,-25.879,0.000
1621214709.257,-29.785,-34.668,-44.434,-30.762,0.000
1621214709.261,-30.273,-34.180,-44.434,-32.227,0.000
1621214709.265,-29.785,-33.203,-43.457,-31.738,0.000
1621214709.269,-29.297,-29.297,-47.852,-32.227,0.000
1621214709.272,-33.203,-26.367,-54.688,-32.715,0.000
1621214709.276,-38.574,-29.297,-48.828,-30.762,0.000
1621214709.280,-41.016,-32.715,-38.086,-30.762,0.000
1621214709.284,-37.109,-26.855,-34.180,-32.715,0.000
1621214709.288,-29.785,-23.926,-38.574,-32.227,0.000
1621214709.292,-26.855,-28.320,-41.992,-31.738,0.000
1621214709.296,-33.203,-34.668,-42.480,-41.016,0.000
1621214709.300,-41.016,-35.156,-45.410,-34.180,0.000
1621214709.304,-40.527,-30.273,-31.738,-19.531,0.000
1621214709.308,-33.203,-30.273,-24.902,-21.973,0.000
1621214709.312,-37.109,-38.086,-29.785,-31.738,0.000
1621214709.315,-35.156,-36.621,-32.227,-38.086,0.000
1621214709.319,-25.391,-32.715,-31.738,-25.391,0.000
1621214709.323,-26.367,-35.156,-24.902,-24.902,0.000
1621214709.327,-21.484,-36.621,-30.273,-31.250,0.000
1621214709.331,-21.484,-37.598,-38.574,-27.832,0.000
1621214709.335,-27.344,-34.180,-34.668,-19.531,0.000
1621214709.339,-27.344,-31.738,-44.434,-22.949,0.000
1621214709.343,-28.320,-31.250,-43.945,-35.156,0.000
1621214709.347,-30.273,-30.762,-36.133,-44.922,0.000
1621214709.351,-31.250,-35.156,-48.340,-43.945,0.000
1621214709.355,-33.203,-41.504,-46.387,-31.738,0.000
1621214709.358,-22.461,-41.992,-34.668,-28.809,0.000
1621214709.362,-24.414,-41.016,-35.156,-37.109,0.000
1621214709.366,-24.902,-41.016,-25.879,-35.156,0.000
1621214709.370,-16.602,-37.598,-20.508,-32.715,0.000
1621214709.374,-20.020,-38.574,-48.340,-32.227,0.000
1621214709.378,-18.555,-38.574,-53.223,-32.715,0.000
1621214709.382,-17.578,-36.133,-39.062,-37.109,0.000
1621214709.386,-16.602,-34.180,-38.086,-30.762,0.000
1621214709.390,-11.230,-33.691,-32.715,-23.926,0.000
1621214709.394,-9.766,-38.086,-36.621,-24.414,0.000
1621214709.397,-15.625,-38.086,-38.574,-20.996,0.000
1621214709.401,-28.809,-32.227,-25.391,-15.625,0.000
1621214709.405,-21.973,-34.180,-13.672,-20.996,0.000
1621214709.409,-14.160,-39.551,-31.250,-32.227,0.000
1621214709.413,-17.090,-39.551,-46.875,-30.273,0.000
1621214709.417,-15.137,-39.062,-37.109,-19.531,0.000
1621214709.421,-24.414,-39.062,-27.832,-23.438,0.000
1621214709.425,-30.762,-40.039,-29.297,-30.762,0.000
1621214709.429,-29.785,-40.527,-33.203,-36.133,0.000
1621214709.433,-33.203,-39.062,-31.250,-39.062,0.000
1621214709.437,-35.645,-37.109,-31.738,-28.809,0.000
1621214709.440,-23.438,-32.227,-31.738,-24.902,0.000
1621214709.444,-18.066,-35.645,-24.414,-26.855,0.000
1621214709.448,-21.973,-40.039,-26.367,-26.855,0.000
1621214709.452,-26.367,-35.156,-36.133,-25.391,0.000
1621214709.456,-27.832,-33.203,-29.297,-20.508,0.000
1621214709.460,-23.926,-33.691,-27.832,-28.809,0.000
1621214709.464,-21.484,-34.668,-37.598,-37.109,0.000
1621214709.468,-18.555,-35.156,-35.645,-26.855,0.000
1621214709.472,-21.484,-30.273,-35.645,-16.113,0.000
1621214709.476,-19.531,-25.879,-40.527,-14.160,0.000
1621214709.480,-19.531,-26.367,-39.062,-11.719,0.000
1621214709.483,-23.438,-31.250,-29.785,-8.789,0.000
1621214709.487,-22.461,-37.109,-18.066,-2.930,0.000
1621214709.491,-24.414,-33.691,-27.832,2.930,0.000
1621214709.495,-26.367,-33.691,-38.574,-8.789,0.000
1621214709.499,-23.926,-35.156,-37.598,-20.020,0.000
1621214709.503,-31.250,-34.668,-38.574,-16.113,0.000
1621214709.507,-30.273,-34.180,-30.273,-18.555,0.000
1621214709.511,-28.320,-36.133,-37.109,-28.809,0.000
1621214709.515,-23.438,-36.621,-42.969,-23.926,0.000
1621214709.519,-18.066,-43.945,-31.738,-11.230,0.000
1621214709.522,-20.508,-40.039,-29.785,-5.859,0.000
1621214709.526,-14.160,-28.809,-24.902,-5.859,0.000
1621214709.530,-14.160,-29.297,-24.902,-12.695,0.000
1621214709.534,-20.020,-31.250,-32.715,-18.555,0.000
1621214709.538,-21.484,-29.785,-32.715,-15.625,0.000
1621214709.542,-18.066,-24.414,-28.809,-9.766,0.000
1621214709.546,-18.555,-23.438,-40.527,-11.230,0.000
1621214709.550,-15.137,-25.391,-39.551,-9.277,0.000
1621214709.554,-15.625,-25.879,-32.227,-11.230,0.000
1621214709.558,-16.113,-24.902,-36.133,-23.438,0.000
1621214709.562,-13.672,-22.461,-34.668,-24.902,0.000
1621214709.565,-19.043,-26.367,-43.457,-22.949,0.000
1621214709.569,-28.320,-30.273,-44.434,-30.762,0.000
1621214709.573,-26.367,-32.227,-39.062,-32.715,0.000
1621214709.577,-25.879,-33.203,-41.504,-27.832,0.000
1621214709.581,-28.809,-29.785,-30.273,-24.414,0.000
1621214709.585,-21.973,-28.809,-31.738,-27.832,0.000
1621214709.589,-20.996,-27.344,-43.945,-24.902,0.000
1621214709.593,-20.508,-28.809,-28.809,-21.973,0.000
1621214709.597,-13.184,-28.809,-25.391,-20.020,0.000
1621214709.601,-19.531,-25.879,-50.781,-23.438,0.000
1621214709.604,-27.344,-27.344,-50.781,-28.320,0.000
1621214709.608,-24.414,-29.785,-28.809,-24.414,0.000
1621214709.612,-17.578,-26.855,-21.484,-22.461,0.000
1621214709.616,-21.484,-27.344,-21.973,-30.762,0.000
1621214709.620,-25.391,-31.738,-31.250,-35.645,0.000
1621214709.624,-27.344,-31.250,-42.480,-26.367,0.000
1621214709.628,-28.320,-33.691,-41.016,-30.273,0.000
1621214709.632,-30.273,-37.109,-35.156,-33.203,0.000
1621214709.636,-40.039,-36.621,-31.738,-37.598,0.000
1621214709.640,-38.086,-39.551,-30.273,-35.645,0.000
1621214709.644,-39.062,-43.945,-32.715,-35.645,0.000
1621214709.647,-43.945,-35.645,-31.738,-39.062,0.000
1621214709.651,-41.504,-30.273,-38.086,-33.203,0.000
1621214709.655,-30.762,-31.738,-38.086,-29.297,0.000
1621214709.659,-27.344,-34.668,-29.785,-31.738,0.000
1621214709.663,-28.809,-41.016,-34.180,-38.574,0.000
1621214709.667,-24.414,-39.551,-36.133,-35.156,0.000
1621214709.671,-25.391,-37.598,-36.133,-29.297,0.000
1621214709.675,-26.367,-41.504,-44.434,-27.344,0.000
1621214709.679,-27.832,-46.875,-42.480,-28.320,0.000
1621214709.683,-20.996,-47.852,-39.551,-21.484,0.000
1621214709.687,-15.625,-41.016,-47.852,-20.020,0.000
1621214709.690,-20.996,-38.086,-40.039,-28.320,0.000
1621214709.694,-17.578,-32.715,-29.785,-29.785,0.000
1621214709.698,-17.578,-33.691,-33.691,-30.762,0.000
1621214709.702,-19.043,-37.598,-39.062,-26.367,0.000
1621214709.706,-23.926,-37.598,-41.504,-28.320,0.000
1621214709.710,-23.926,-39.062,-26.855,-33.203,0.000
1621214709.714,-24.902,-34.668,-22.461,-32.227,0.000
1621214709.718,-33.203,-33.691,-39.062,-33.691,0.000
1621214709.722,-35.645,-35.645,-38.086,-33.691,0.000
1621214709.726,-35.645,-39.551,-37.109,-38.574,0.000
1621214709.729,-44.922,-41.016,-42.969,-41.016,0.000
1621214709.733,-45.410,-37.109,-41.992,-34.668,0.000
1621214709.737,-32.715,-36.133,-37.598,-28.320,0.000
1621214709.741,-29.297,-39.062,-25.879,-23.926,0.000
1621214709.745,-21.973,-41.504,-24.902,-19.043,0.000
1621214709.749,-15.625,-40.527,-35.156,-17.578,0.000
1621214709.753,-24.414,-41.016,-32.227,-23.438,0.000
1621214709.757,-22.461,-41.016,-30.273,-15.137,0.000
1621214709.761,-18.066,-38.574,-38.574,-6.836,0.000
1621214709.765,-24.414,-44.922,-48.340,-13.672,0.000
1621214709.769,-18.066,-50.293,-45.410,-14.648,0.000
1621214709.772,-10.254,-41.992,-45.898,-12.695,0.000
1621214709.776,-21.973,-34.668,-43.457,-19.531,0.000
1621214709.780,-30.273,-32.715,-39.062,-30.762,0.000
1621214709.784,-24.414,-34.668,-34.668,-19.531,0.000
1621214709.788,-29.297,-34.668,-30.762,-8.789,0.000
1621214709.792,-38.574,-29.297,-32.715,-21.973,0.000
1621214709.796,-30.273,-31.738,-36.133,-35.645,0.000
1621214709.800,-23.438,-35.645,-32.227,-34.180,0.000
1621214709.804,-23.438,-37.109,-36.133,-26.367,0.000
1621214709.808,-20.508,-39.551,-28.320,-23.926,0.000
1621214709.812,-18.555,-32.227,-25.879,-24.902,0.000
1621214709.815,-24.414,-25.391,-28.809,-19.531,0.000
1621214709.819,-20.020,-26.367,-29.785,-9.277,0.000
1621214709.823,-14.160,-25.879,-30.762,-13.184,0.000
1621214709.827,-17.578,-26.855,-22.461,-22.461,0.000
1621214709.831,-16.113,-27.344,-27.344,-23.438,0.000
1621214709.835,-6.836,-26.367,-30.273,-17.090,0.000
1621214709.839,-2.441,-24.902,-20.996,-9.277,0.000
1621214709.843,-3.906,-25.879,-24.902,-13.184,0.000
1621214709.847,-4.883,-26.855,-41.992,-18.066,0.000
1621214709.851,-7.324,-27.344,-41.016,-20.996,0.000
1621214709.854,-10.742,-28.320,-39.551,-18.066,0.000
1621214709.858,-14.648,-22.949,-36.133,-12.695,0.000
1621214709.862,-18.066,-24.902,-29.297,-19.531,0.000
1621214709.866,-21.973,-27.832,-30.762,-23.926,0.000
1621214709.870,-23.438,-29.297,-37.598,-25.879,0.000
1621214709.874,-26.855,-32.227,-39.551,-27.832,0.000
1621214709.878,-30.273,-29.785,-44.922,-30.762,0.000
1621214709.882,-30.762,-26.855,-36.133,-34.668,0.000
1621214709.886,-25.879,-31.738,-27.344,-42.480,0.000
1621214709.890,-21.973,-34.180,-30.273,-41.992,0.000
1621214709.894,-29.785,-30.273,-31.250,-44.434,0.000
1621214709.897,-32.715,-32.715,-42.969,-52.246,0.000
1621214709.901,-20.508,-32.715,-42.480,-42.969,0.000
1621214709.905,-22.461,-34.668,-33.203,-29.785,0.000
1621214709.909,-23.438,-36.133,-33.203,-25.879,0.000
1621214709.913,-29.785,-37.109,-33.203,-27.344,0.000
1621214709.917,-32.715,-35.645,-29.297,-25.879,0.000
1621214709.921,-25.391,-32.715,-31.738,-19.531,0.000
1621214709.925,-24.902,-37.598,-32.227,-15.137,0.000
1621214709.929,-25.391,-39.062,-26.367,-14.160,0.000
1621214709.933,-17.578,-34.668,-29.297,-16.113,0.000
1621214709.937,-12.207,-40.527,-29.297,-7.324,0.000
1621214709.940,-17.090,-43.945,-20.996,-1.953,0.000
1621214709.944,-13.184,-38.574,-28.809,-7.324,0.000
1621214709.948,-19.043,-35.156,-41.504,-9.277,0.000
1621214709.952,-22.461,-36.133,-36.133,-5.371,0.000
1621214709.956,-22.949,-38.574,-29.297,-2.930,0.000
1621214709.960,-20.996,-28.809,-27.344,-11.230,0.000
1621214709.964,-18.066,-24.902,-26.855,-20.020,0.000
1621214709.968,-24.414,-29.297,-35.156,-20.020,0.000
1621214709.972,-27.344,-27.344,-37.109,-17.578,0.000
1621214709.976,-30.762,-30.762,-30.762,-29.297,0.000
1621214709.979,-23.926,-32.227,-30.273,-38.574,0.000
1621214709.983,-22.949,-33.691,-33.203,-31.738,0.000
1621214709.987,-33.203,-39.551,-31.250,-25.879,0.000
1621214709.991,-30.762,-37.598,-37.109,-32.227,0.000
1621214709.995,-30.273,-36.621,-48.828,-45.898,0.000
1621214709.999,-35.645,-42.969,-44.922,-37.109,0.000
1621214710.003,-34.668,-43.945,-41.992,-31.250,0.000
1621214710.007,-26.855,-36.133,-44.922,-35.645,0.000
1621214710.011,-21.484,-30.273,-36.133,-31.738,0.000
1621214710.015,-27.832,-33.203,-32.715,-28.320,0.000
1621214710.019,-26.855,-32.715,-43.945,-20.020,0.000
1621214710.022,-27.344,-28.320,-51.270,-29.297,0.000
1621214710.026,-27.344,-32.715,-42.969,-35.156,0.000
1621214710.030,-26.855,-35.645,-40.527,-38.574,0.000
1621214710.034,-30.762,-35.156,-36.133,-39.062,0.000
1621214710.038,-26.367,-32.715,-41.992,-26.855,0.000
1621214710.042,-22.949,-33.691,-53.223,-25.879,0.000
1621214710.046,-14.648,-37.109,-46.387,-37.598,0.000
1621214710.050,-16.602,-36.133,-43.457,-43.457,0.000
1621214710.054,-28.809,-37.109,-52.246,-39.551,0.000
1621214710.058,-23.926,-36.621,-49.316,-34.180,0.000
1621214710.061,-19.043,-33.203,-40.039,-23.438,0.000
1621214710.065,-28.809,-31.250,-41.504,-24.902,0.000
1621214710.069,-34.668,-30.273,-32.715,-28.809,0.000
1621214710.073,-24.414,-29.785,-26.367,-23.438,0.000
1621214710.077,-11.719,-29.297,-37.598,-23.926,0.000
1621214710.081,-18.066,-29.785,-45.410,-25.391,0.000
1621214710.085,-20.508,-31.250,-36.133,-16.113,0.000
1621214710.089,-18.066,-31.250,-38.574,-12.695,0.000
1621214710.093,-19.531,-32.227,-41.016,-18.066,0.000
1621214710.097,-20.020,-32.715,-38.086,-18.555,0.000
1621214710.101,-22.949,-39.551,-46.387,-26.855,0.000
1621214710.104,-23.926,-45.410,-40.039,-33.203,0.000
1621214710.108,-21.973,-37.598,-32.227,-26.855,0.000
1621214710.112,-19.531,-35.156,-36.133,-29.785,0.000
1621214710.116,-17.090,-37.598,-38.086,-34.180,0.000
1621214710.120,-17.090,-33.203,-38.086,-26.367,0.000
1621214710.124,-17.578,-31.738,-40.039,-20.508,0.000
1621214710.128,-23.926,-34.180,-47.363,-30.273,0.000
1621214710.132,-26.855,-34.180,-49.805,-27.832,0.000
1621214710.136,-20.508,-36.133,-39.551,-20.020,0.000
1621214710.140,-23.438,-38.086,-39.551,-21.484,0.000
1621214710.144,-24.414,-30.273,-40.527,-23.438,0.000
1621214710.147,-20.020,-30.273,-38.086,-20.508,0.000
1621214710.151,-16.602,-38.574,-39.062,-14.648,0.000
1621214710.155,-18.066,-31.250,-32.227,-13.184,0.000
1621214710.159,-19.043,-25.391,-33.691,-26.855,0.000
1621214710.163,-14.648,-31.250,-42.480,-31.250,0.000
1621214710.167,-21.973,-38.574,-32.715,-26.855,0.000
1621214710.171,-32.715,-41.992,-41.992,-27.832,0.000
1621214710.175,-21.973,-35.645,-50.293,-25.391,0.000
1621214710.179,-20.996,-33.691,-42.969,-25.879,0.000
1621214710.183,-23.926,-36.621,-44.434,-23.926,0.000
1621214710.186,-24.414,-34.180,-41.504,-18.066,0.000
1621214710.190,-38.574,-31.250,-38.574,-16.602,0.000
1621214710.194,-40.527,-36.133,-40.527,-17.090,0.000
1621214710.198,-35.645,-38.086,-46.387,-20.508,0.000
1621214710.202,-34.668,-32.227,-47.363,-25.879,0.000
1621214710.206,-30.273,-32.715,-35.156,-19.531,0.000
1621214710.210,-25.391,-30.273,-32.227,-23.926,0.000
1621214710.214,-25.879,-26.855,-46.875,-33.203,0.000
1621214710.218,-29.785,-32.715,-39.551,-33.203,0.000
1621214710.222,-27.344,-35.156,-29.785,-26.367,0.000
1621214710.226,-24.414,-33.691,-41.016,-26.855,0.000
1621214710.229,-27.832,-37.598,-47.852,-29.297,0.000
1621214710.233,-24.902,-33.691,-40.527,-26.367,0.000
1621214710.237,-23.926,-31.250,-49.805,-18.555,0.000
1621214710.241,-22.461,-39.551,-46.387,-13.672,0.000
1621214710.245,-25.391,-36.621,-30.273,-21.484,0.000
1621214710.249,-23.926,-35.156,-37.109,-28.320,0.000
1621214710.253,-17.090,-35.645,-38.574,-27.832,0.000
1621214710.257,-19.043,-36.133,-29.785,-27.344,0.000
1621214710.261,-20.020,-36.133,-38.086,-29.297,0.000
1621214710.265,-20.020,-33.203,-40.527,-32.715,0.000
1621214710.269,-26.367,-34.180,-34.668,-27.832,0.000
1621214710.272,-31.738,-36.133,-38.086,-28.320,0.000
1621214710.276,-36.133,-38.574,-38.086,-35.156,0.000
1621214710.280,-41.016,-39.062,-37.598,-39.551,0.000
1621214710.284,-36.621,-37.109,-36.621,-38.086,0.000
1621214710.288,-33.691,-34.668,-32.227,-35.645,0.000
1621214710.292,-37.598,-39.062,-41.504,-31.738,0.000
1621214710.296,-36.133,-41.504,-36.621,-30.273,0.000
1621214710.300,-34.668,-41.016,-25.391,-29.297,0.000
1621214710.304,-36.621,-41.016,-46.875,-26.855,0.000
1621214710.308,-33.691,-37.598,-62.012,-29.785,0.000
1621214710.311,-25.879,-39.062,-49.316,-41.504,0.000
1621214710.315,-31.738,-41.016,-37.598,-39.062,0.000
1621214710.319,-35.645,-36.133,-36.133,-34.180,0.000
1621214710.323,-20.020,-30.762,-31.250,-23.438,0.000
1621214710.327,-18.066,-35.156,-26.367,-15.625,0.000
1621214710.331,-21.973,-39.551,-29.785,-22.461,0.000
1621214710.335,-16.113,-35.645,-26.855,-16.113,0.000
1621214710.339,-13.672,-36.621,-27.344,-15.137,0.000
1621214710.343,-12.207,-37.598,-32.227,-17.090,0.000
1621214710.347,-10.254,-31.738,-28.320,-16.602,0.000
1621214710.351,-9.277,-33.203,-31.738,-25.879,0.000
1621214710.354,-18.555,-32.227,-44.434,-26.367,0.000
1621214710.358,-24.902,-33.203,-41.504,-17.578,0.000
1621214710.362,-16.602,-34.668,-40.527,-16.602,0.000
1621214710.366,-14.160,-26.367,-41.504,-20.996,0.000
1621214710.370,-23.926,-28.320,-32.715,-23.438,0.000
1621214710.374,-23.438,-32.227,-29.785,-19.043,0.000
1621214710.378,-21.973,-33.203,-37.598,-25.391,0.000
1621214710.382,-32.227,-38.574,-37.598,-36.621,0.000
1621214710.386,-29.785,-38.574,-35.645,-38.086,0.000
1621214710.390,-22.461,-34.668,-34.180,-32.715,0.000
1621214710.393,-17.578,-32.227,-22.949,-30.273,0.000
1621214710.397,-25.391,-31.250,-32.227,-47.852,0.000
1621214710.401,-32.227,-32.715,-41.504,-47.852,0.000
1621214710.405,-22.461,-32.715,-35.156,-31.738,0.000
1621214710.409,-13.672,-31.250,-31.250,-31.738,0.000
1621214710.413,-12.695,-21.973,-26.367,-28.809,0.000
1621214710.417,-8.789,-17.090,-27.344,-23.438,0.000
1621214710.421,-13.184,-22.949,-33.691,-15.137,0.000
1621214710.425,-16.113,-22.949,-34.180,-17.090,0.000
1621214710.429,-10.254,-24.414,-30.273,-17.578,0.000
1621214710.433,-12.695,-32.227,-35.156,-12.695,0.000
1621214710.436,-11.719,-32.227,-33.203,-6.836,0.000
1621214710.440,-20.996,-33.203,-24.902,-11.719,0.000
1621214710.444,-26.855,-34.180,-24.902,-20.020,0.000
1621214710.448,-15.625,-27.832,-30.273,-15.137,0.000
1621214710.452,-17.090,-29.297,-32.227,-11.719,0.000
1621214710.456,-14.160,-30.273,-32.227,-9.766,0.000
1621214710.460,-16.602,-32.227,-35.156,-15.137,0.000
1621214710.464,-23.438,-34.180,-34.668,-24.902,0.000
1621214710.468,-24.902,-32.227,-33.203,-28.809,0.000
1621214710.472,-31.738,-31.250,-30.762,-32.715,0.000
1621214710.476,-38.574,-28.809,-30.273,-37.598,0.000
1621214710.479,-28.809,-30.762,-34.180,-32.715,0.000
1621214710.483,-16.602,-29.785,-35.645,-22.461,0.000
1621214710.487,-21.973,-29.297,-38.086,-27.344,0.000
1621214710.491,-26.367,-34.180,-39.062,-26.855,0.000
1621214710.495,-26.855,-33.203,-33.203,-26.855,0.000
1621214710.499,-30.273,-32.715,-36.621,-36.621,0.000
1621214710.503,-29.785,-34.668,-43.945,-31.250,0.000
1621214710.507,-24.902,-35.645,-51.270,-25.391,0.000
1621214710.511,-21.973,-31.738,-51.758,-33.691,0.000
1621214710.515,-16.602,-27.344,-47.852,-33.691,0.000
1621214710.518,-12.207,-24.902,-39.551,-20.508,0.000
1621214710.522,-19.531,-28.809,-35.645,-17.090,0.000
1621214710.526,-20.996,-37.109,-48.340,-21.484,0.000
1621214710.530,-16.602,-32.227,-48.828,-25.391,0.000
1621214710.534,-11.719,-25.879,-34.180,-13.672,0.000
1621214710.538,-14.648,-32.227,-23.438,-13.184,0.000
1621214710.542,-18.555,-37.598,-34.180,-16.113,0.000
1621214710.546,-12.207,-32.227,-33.203,-11.719,0.000
1621214710.550,-15.137,-24.414,-19.043,-6.836,0.000
1621214710.554,-13.184,-18.066,-13.184,-2.441,0.000
1621214710.558,-15.625,-21.484,-27.344,-9.277,0.000
1621214710.561,-20.020,-27.344,-39.551,-13.184,0.000
1621214710.565,-13.672,-26.367,-20.508,-13.672,0.000
1621214710.569,-15.625,-28.320,-16.113,-5.859,0.000
1621214710.573,-16.602,-28.809,-19.043,-4.395,0.000
1621214710.577,-14.648,-31.738,-18.555,-19.531,0.000
1621214710.581,-12.695,-34.180,-19.531,-21.973,0.000
1621214710.585,-10.742,-27.344,-22.461,-14.160,0.000
1621214710.589,-17.578,-27.344,-14.648,-14.648,0.000
1621214710.593,-15.625,-29.297,-15.137,-20.020,0.000
1621214710.597,-14.648,-31.738,-33.203,-34.668,0.000
1621214710.601,-11.719,-34.668,-33.691,-36.621,0.000
1621214710.604,-15.625,-31.250,-28.320,-30.273,0.000
1621214710.608,-17.090,-32.227,-26.367,-33.203,0.000
1621214710.612,-2.930,-32.227,-26.855,-38.086,0.000
1621214710.616,-9.766,-30.762,-33.203,-27.832,0.000
1621214710.620,-19.531,-32.227,-38.086,-24.902,0.000
1621214710.624,-17.578,-26.855,-35.645,-30.273,0.000
1621214710.628,-20.020,-20.996,-27.832,-25.391,0.000
1621214710.632,-20.508,-26.855,-25.879,-22.949,0.000
1621214710.636,-22.949,-35.156,-18.066,-31.738,0.000
1621214710.640,-20.996,-33.203,-25.879,-30.762,0.000
1621214710.643,-20.020,-31.738,-39.062,-25.879,0.000
1621214710.647,-27.832,-37.598,-33.691,-31.250,0.000
1621214710.651,-31.738,-39.062,-36.133,-28.320,0.000
1621214710.655,-22.461,-38.574,-35.156,-20.508,0.000
1621214710.659,-18.555,-35.645,-29.297,-16.602,0.000
1621214710.663,-20.996,-26.855,-36.133,-16.602,0.000
1621214710.667,-24.414,-25.879,-43.457,-20.508,0.000
1621214710.671,-30.273,-34.668,-37.598,-18.066,0.000
1621214710.675,-24.902,-36.133,-24.414,-2.441,0.000
1621214710.679,-21.484,-34.668,-26.367,-14.160,0.000
1621214710.683,-21.973,-30.762,-31.250,-25.879,0.000
1621214710.686,-18.066,-28.320,-20.996,-12.695,0.000
1621214710.690,-20.996,-28.809,-21.484,-20.020,0.000
1621214710.694,-24.902,-29.785,-30.762,-32.227,0.000
1621214710.698,-24.414,-30.762,-31.250,-33.203,0.000
1621214710.702,-18.555,-29.785,-28.320,-26.367,0.000
1621214710.706,-9.766,-32.227,-26.855,-18.066,0.000
1621214710.710,-13.672,-33.691,-28.320,-21.973,0.000
1621214710.714,-20.508,-36.133,-38.086,-30.273,0.000
1621214710.718,-11.719,-33.691,-39.551,-26.855,0.000
1621214710.722,-11.230,-35.156,-32.227,-24.902,0.000
1621214710.725,-22.461,-36.621,-38.086,-33.203,0.000
1621214710.729,-23.438,-33.691,-36.621,-37.109,0.000
1621214710.733,-20.508,-31.738,-32.715,-26.855,0.000
1621214710.737,-22.949,-29.297,-37.109,-21.484,0.000
1621214710.741,-29.785,-35.645,-37.109,-33.203,0.000
1621214710.745,-29.785,-41.016,-41.504,-41.504,0.000
1621214710.749,-25.391,-37.109,-48.828,-33.691,0.000
1621214710.753,-25.879,-39.062,-47.363,-22.461,0.000
1621214710.757,-28.320,-41.992,-48.828,-28.809,0.000
1621214710.761,-25.391,-38.574,-45.410,-34.180,0.000
1621214710.765,-16.602,-35.645,-42.480,-24.902,0.000
1621214710.768,-16.113,-37.109,-49.316,-23.926,0.000
1621214710.772,-19.531,-41.016,-50.781,-25.879,0.000
1621214710.776,-17.090,-38.574,-46.875,-23.926,0.000
1621214710.780,-17.578,-35.156,-41.992,-27.344,0.000
1621214710.784,-18.555,-33.691,-37.109,-20.996,0.000
1621214710.788,-19.531,-34.180,-29.297,-14.160,0.000
1621214710.792,-22.461,-36.133,-31.738,-13.672,0.000
1621214710.796,-25.879,-34.668,-43.945,-19.531,0.000
1621214710.800,-17.578,-32.715,-46.387,-28.809,0.000
1621214710.804,-14.648,-34.668,-44.922,-37.598,0.000
1621214710.808,-23.438,-35.156,-44.922,-38.086,0.000
1621214710.811,-24.902,-33.691,-41.504,-33.691,0.000
1621214710.815,-30.273,-33.691,-36.133,-39.062,0.000
1621214710.819,-28.809,-39.551,-34.668,-34.668,0.000
1621214710.823,-21.484,-39.551,-34.668,-30.762,0.000
1621214710.827,-22.461,-37.109,-41.016,-43.457,0.000
1621214710.831,-24.414,-41.992,-45.898,-41.504,0.000
1621214710.835,-25.879,-41.992,-42.480,-34.668,0.000
1621214710.839,-22.461,-38.574,-41.504,-37.598,0.000
1621214710.843,-25.391,-33.203,-42.969,-36.621,0.000
1621214710.847,-25.879,-31.250,-42.969,-33.203,0.000
1621214710.850,-21.973,-30.762,-46.875,-34.668,0.000
1621214710.854,-18.555,-27.832,-46.387,-27.344,0.000
1621214710.858,-17.578,-26.367,-46.387,-27.344,0.000
1621214710.862,-17.578,-24.414,-45.898,-35.645,0.000
1621214710.866,-16.113,-27.344,-46.875,-30.762,0.000
1621214710.870,-8.789,-29.785,-43.457,-19.531,0.000
1621214710.874,-6.348,-26.367,-29.785,-12.695,0.000
1621214710.878,-13.672,-22.949,-38.086,-21.973,0.000
1621214710.882,-6.348,-23.926,-44.434,-22.461,0.000
1621214710.886,0.977,-24.902,-43.457,-11.719,0.000
1621214710.890,-12.207,-29.297,-46.875,-5.371,0.000
1621214710.893,-18.066,-35.645,-41.992,-15.137,0.000
1621214710.897,-20.996,-31.738,-36.621,-19.531,0.000
1621214710.901,-26.367,-27.832,-32.227,-9.766,0.000
1621214710.905,-23.438,-29.297,-33.203,-6.836,0.000
1621214710.909,-24.902,-29.785,-35.156,-11.719,0.000
1621214710.913,-20.020,-26.367,-32.715,-8.789,0.000
1621214710.917,-15.625,-26.367,-31.738,-10.254,0.000
1621214710.921,-12.695,-29.785,-36.133,-20.996,0.000
1621214710.925,-13.184,-30.762,-37.109,-17.578,0.000
1621214710.929,-11.230,-31.250,-33.203,-17.578,0.000
1621214710.933,-11.719,-31.250,-43.945,-20.020,0.000
1621214710.936,-19.531,-29.785,-47.852,-19.043,0.000
1621214710.940,-21.484,-30.762,-30.762,-21.484,0.000
1621214710.944,-20.996,-31.250,-43.457,-18.066,0.000
1621214710.948,-22.461,-29.785,-54.688,-16.602,0.000
1621214710.952,-24.902,-32.227,-47.363,-20.020,0.000
1621214710.956,-25.391,-33.691,-44.922,-12.695,0.000
1621214710.960,-30.273,-30.273,-38.086,-15.625,0.000
1621214710.964,-30.762,-31.738,-34.668,-22.949,0.000
1621214710.968,-20.996,-37.109,-38.086,-16.602,0.000
1621214710.972,-18.066,-34.668,-42.969,-15.137,0.000
1621214710.975,-17.578,-33.203,-42.480,-16.602,0.000
1621214710.979,-24.902,-34.668,-38.086,-21.973,0.000
1621214710.983,-22.461,-33.691,-36.133,-20.996,0.000
1621214710.987,-20.996,-33.691,-30.762,-12.695,0.000
1621214710.991,-28.320,-38.086,-39.062,-13.672,0.000
1621214710.995,-30.273,-35.645,-43.457,-27.344,0.000
1621214710.999,-35.156,-33.691,-32.715,-29.785,0.000
1621214711.003,-32.715,-34.668,-33.691,-14.160,0.000
1621214711.007,-29.297,-32.715,-38.086,-9.766,0.000
1621214711.011,-25.879,-30.762,-41.992,-15.137,0.000
1621214711.015,-23.438,-28.320,-41.016,-14.648,0.000
1621214711.018,-24.902,-33.203,-31.738,-6.348,0.000
1621214711.022,-26.855,-36.621,-25.391,-3.418,0.000
1621214711.026,-34.668,-35.645,-20.020,-12.695,0.000
1621214711.030,-31.738,-33.691,-20.508,-23.926,0.000
1621214711.034,-18.066,-32.227,-37.109,-18.555,0.000
1621214711.038,-17.578,-27.344,-41.016,-20.020,0.000
1621214711.042,-19.531,-26.367,-31.250,-30.762,0.000
1621214711.046,-12.207,-24.902,-35.156,-29.785,0.000
1621214711.050,-6.348,-20.508,-32.715,-23.438,0.000
1621214711.054,-11.230,-20.020,-26.855,-18.555,0.000
1621214711.057,-19.531,-20.020,-27.832,-19.531,0.000
1621214711.061,-28.809,-24.414,-27.344,-21.484,0.000
1621214711.065,-23.926,-30.762,-27.832,-20.508,0.000
1621214711.069,-20.996,-23.438,-29.785,-10.254,0.000
1621214711.073,-23.926,-24.902,-33.691,-1.953,0.000
1621214711.077,-20.996,-35.645,-37.109,-10.254,0.000
1621214711.081,-21.973,-36.133,-37.598,-24.902,0.000
1621214711.085,-27.344,-39.062,-35.156,-28.809,0.000
1621214711.089,-34.668,-40.527,-33.203,-20.996,0.000
1621214711.093,-27.344,-33.691,-28.320,-16.602,0.000
1621214711.097,-11.230,-35.156,-30.762,-19.531,0.000
1621214711.100,-16.602,-38.086,-43.945,-20.020,0.000
1621214711.104,-24.902,-36.621,-41.504,-18.066,0.000
1621214711.108,-31.738,-35.156,-34.180,-23.926,0.000
1621214711.112,-35.645,-40.527,-34.668,-29.785,0.000
1621214711.116,-36.621,-44.922,-35.645,-24.902,0.000
1621214711.120,-32.715,-39.551,-36.133,-23.926,0.000
1621214711.124,-23.926,-38.086,-33.203,-27.832,0.000
1621214711.128,-20.996,-37.109,-37.598,-31.738,0.000
1621214711.132,-18.555,-33.691,-42.480,-36.133,0.000
1621214711.136,-29.297,-33.203,-30.273,-27.832,0.000
1621214711.140,-20.996,-30.273,-27.344,-14.160,0.000
1621214711.143,-11.230,-27.344,-43.457,-18.555,0.000
1621214711.147,-24.902,-33.691,-48.828,-36.621,0.000
1621214711.151,-21.484,-37.598,-42.969,-30.762,0.000
1621214711.155,-24.414,-41.992,-39.062,-23.438,0.000
1621214711.159,-27.832,-41.992,-38.574,-36.621,0.000
1621214711.163,-29.297,-39.062,-39.062,-41.992,0.000
1621214711.167,-29.297,-36.621,-37.598,-32.715,0.000
1621214711.171,-36.621,-35.156,-32.715,-27.344,0.000
1621214711.175,-37.109,-38.086,-29.785,-33.203,0.000
1621214711.179,-26.855,-41.016,-32.715,-37.109,0.000
1621214711.182,-29.785,-41.016,-36.133,-32.715,0.000
1621214711.186,-33.203,-36.621,-35.156,-19.043,0.000
1621214711.190,-28.809,-34.668,-30.273,-20.508,0.000
1621214711.194,-17.090,-32.227,-22.949,-28.320,0.000
1621214711.198,-18.066,-33.691,-20.508,-18.066,0.000
1621214711.202,-24.414,-35.645,-34.668,-11.719,0.000
1621214711.206,-18.066,-33.203,-41.504,-8.789,0.000
1621214711.210,-23.926,-36.621,-33.691,-8.789,0.000
1621214711.214,-34.668,-38.574,-29.785,-7.324,0.000
1621214711.218,-30.273,-34.180,-28.320,-13.672,0.000
1621214711.222,-22.461,-31.250,-30.762,-16.602,0.000
1621214711.225,-19.531,-30.273,-29.785,-10.742,0.000
1621214711.229,-25.391,-32.227,-33.691,-9.766,0.000
1621214711.233,-26.855,-33.691,-35.645,-14.648,0.000
1621214711.237,-11.719,-33.203,-29.297,-15.625,0.000
1621214711.241,-8.301,-32.715,-31.738,-5.859,0.000
1621214711.245,-14.648,-28.320,-40.039,-12.695,0.000
1621214711.249,-14.160,-28.320,-39.551,-20.508,0.000
1621214711.253,-23.438,-32.715,-39.551,-24.902,0.000
1621214711.257,-39.062,-36.133,-44.434,-26.367,0.000
1621214711.261,-27.344,-35.156,-37.109,-31.738,0.000
1621214711.265,-20.020,-34.180,-23.438,-37.109,0.000
1621214711.268,-21.973,-35.645,-32.227,-22.461,0.000
1621214711.272,-13.672,-34.180,-40.527,-14.160,0.000
1621214711.276,-8.301,-30.273,-36.621,-21.973,0.000
1621214711.280,-21.484,-31.250,-37.109,-29.785,0.000
1621214711.284,-28.320,-31.738,-35.645,-22.461,0.000
1621214711.288,-17.578,-32.715,-30.273,-12.695,0.000
1621214711.292,-18.066,-31.738,-24.902,-14.160,0.000
1621214711.296,-26.855,-33.203,-29.297,-23.438,0.000
1621214711.300,-26.855,-33.203,-31.738,-20.996,0.000
1621214711.304,-20.996,-27.344,-35.645,-17.090,0.000
1621214711.307,-25.391,-27.344,-31.738,-18.066,0.000
1621214711.311,-27.832,-31.250,-21.973,-14.648,0.000
1621214711.315,-29.297,-33.203,-30.273,-19.531,0.000
1621214711.319,-28.320,-36.133,-32.227,-12.695,0.000
1621214711.323,-33.691,-33.203,-29.785,-5.859,0.000
1621214711.327,-31.738,-33.691,-38.086,-28.320,0.000
1621214711.331,-17.090,-40.527,-44.434,-39.551,0.000
1621214711.335,-21.973,-40.039,-48.340,-31.738,0.000
1621214711.339,-24.902,-37.109,-42.969,-27.832,0.000
1621214711.343,-27.344,-34.180,-37.598,-27.832,0.000
1621214711.347,-20.508,-35.645,-29.785,-20.508,0.000
1621214711.350,-19.043,-38.086,-19.043,-10.742,0.000
1621214711.354,-21.484,-37.598,-31.250,-15.625,0.000
1621214711.358,-18.066,-35.645,-45.410,-22.461,0.000
1621214711.362,-23.438,-41.504,-33.691,-25.391,0.000
1621214711.366,-20.020,-42.480,-23.926,-18.066,0.000
1621214711.370,-21.973,-40.039,-31.250,-13.672,0.000
1621214711.374,-26.855,-39.062,-37.598,-16.113,0.000
1621214711.378,-25.391,-41.504,-34.668,-21.973,0.000
1621214711.382,-22.461,-44.922,-33.691,-23.926,0.000
1621214711.386,-17.090,-41.992,-40.527,-17.578,0.000
1621214711.390,-16.602,-41.016,-44.922,-15.625,0.000
1621214711.393,-20.020,-40.527,-39.062,-22.461,0.000
1621214711.397,-19.531,-38.086,-32.227,-25.391,0.000
1621214711.401,-18.555,-35.156,-36.621,-22.461,0.000
1621214711.405,-35.156,-35.156,-41.504,-27.832,0.000
1621214711.409,-36.621,-36.133,-39.551,-34.180,0.000
1621214711.413,-22.461,-35.156,-40.527,-31.738,0.000
1621214711.417,-26.367,-32.715,-30.762,-25.391,0.000
1621214711.421,-26.855,-33.203,-22.461,-26.855,0.000
1621214711.425,-16.113,-34.180,-29.297,-22.461,0.000
1621214711.429,-17.578,-32.715,-30.762,-23.926,0.000
1621214711.432,-24.902,-31.250,-26.855,-22.949,0.000
1621214711.436,-23.438,-30.762,-20.508,-14.160,0.000
1621214711.440,-25.879,-35.156,-28.320,-20.508,0.000
1621214711.444,-29.785,-34.180,-43.945,-24.902,0.000
1621214711.448,-29.785,-30.762,-34.180,-21.973,0.000
1621214711.452,-29.297,-30.762,-27.344,-13.672,0.000
1621214711.456,-23.438,-37.598,-32.715,-13.184,0.000
1621214711.460,-18.066,-46.387,-37.598,-22.461,0.000
1621214711.464,-19.043,-41.504,-34.180,-17.090,0.000
1621214711.468,-20.996,-36.621,-26.367,-4.395,0.000
1621214711.472,-18.066,-31.738,-30.273,0.488,0.000
1621214711.475,-16.113,-26.855,-36.133,-11.230,0.000
1621214711.479,-22.949,-29.297,-32.715,-16.602,0.000
1621214711.483,-19.043,-31.738,-28.809,-16.602,0.000
1621214711.487,-19.043,-28.809,-28.809,-15.625,0.000
1621214711.491,-30.273,-29.297,-30.762,-18.066,0.000
1621214711.495,-27.344,-27.344,-25.879,-22.461,0.000
1621214711.499,-15.625,-25.391,-25.391,-16.602,0.000
1621214711.503,-11.719,-27.832,-34.668,-14.648,0.000
1621214711.507,-8.789,-29.785,-36.621,-23.438,0.000
1621214711.511,-7.324,-29.297,-36.621,-29.297,0.000
1621214711.514,-13.672,-28.809,-36.621,-24.902,0.000
1621214711.518,-24.902,-33.203,-37.109,-27.832,0.000
1621214711.522,-34.668,-33.691,-44.922,-34.180,0.000
1621214711.526,-29.785,-32.227,-41.016,-37.109,0.000
1621214711.530,-33.203,-34.668,-28.320,-34.180,0.000
1621214711.534,-37.109,-32.715,-27.344,-34.180,0.000
1621214711.538,-35.645,-30.273,-29.785,-32.715,0.000
1621214711.542,-35.156,-29.785,-35.645,-29.785,0.000
1621214711.546,-33.691,-31.250,-41.992,-41.504,0.000
1621214711.550,-36.133,-30.762,-42.480,-44.434,0.000
1621214711.554,-33.691,-31.250,-41.504,-36.133,0.000
1621214711.557,-23.926,-36.133,-39.062,-17.578,0.000
1621214711.561,-20.996,-37.109,-40.039,-18.555,0.000
1621214711.565,-32.227,-34.180,-38.574,-39.062,0.000
1621214711.569,-35.156,-31.738,-35.645,-40.527,0.000
1621214711.573,-28.320,-35.645,-42.969,-32.227,0.000
1621214711.577,-20.996,-39.062,-43.457,-28.809,0.000
1621214711.581,-23.926,-37.109,-40.527,-30.762,0.000
1621214711.585,-29.297,-33.691,-43.945,-28.320,0.000
1621214711.589,-23.926,-33.203,-35.645,-28.809,0.000
1621214711.593,-27.832,-33.691,-36.133,-33.203,0.000
1621214711.597,-29.297,-34.180,-33.691,-38.086,0.000
1621214711.600,-26.367,-37.598,-23.926,-33.691,0.000
1621214711.604,-25.391,-36.621,-26.855,-21.484,0.000
1621214711.608,-19.043,-34.180,-30.762,-17.578,0.000
1621214711.612,-19.043,-30.762,-31.250,-27.344,0.000
1621214711.616,-18.066,-27.832,-25.879,-25.391,0.000
1621214711.620,-16.602,-30.273,-23.926,-16.113,0.000
1621214711.624,-17.090,-33.203,-27.344,-21.973,0.000
1621214711.628,-18.555,-32.227,-34.668,-22.949,0.000
1621214711.632,-15.625,-35.645,-42.969,-24.414,0.000
1621214711.636,-18.066,-36.133,-41.016,-21.973,0.000
1621214711.639,-9.766,-30.762,-26.367,-14.160,0.000
1621214711.643,-8.789,-26.367,-16.602,-9.766,0.000
1621214711.647,-23.438,-29.297,-26.367,-11.230,0.000
1621214711.651,-10.254,-33.691,-37.109,-15.137,0.000
1621214711.655,-8.301,-34.668,-30.762,-20.996,0.000
1621214711.659,-23.438,-34.180,-23.438,-27.344,0.000
1621214711.663,-27.832,-35.645,-30.273,-35.645,0.000
1621214711.667,-26.855,-36.133,-34.668,-31.738,0.000
1621214711.671,-33.203,-37.109,-37.598,-24.414,0.000
1621214711.675,-33.691,-41.016,-34.668,-21.484,0.000
1621214711.679,-24.902,-35.156,-30.762,-28.809,0.000
1621214711.682,-32.715,-34.668,-46.387,-30.273,0.000
1621214711.686,-43.945,-35.645,-43.945,-16.602,0.000
1621214711.690,-35.156,-33.691,-40.039,-20.996,0.000
1621214711.694,-20.996,-34.668,-45.898,-28.320,0.000
1621214711.698,-20.508,-34.180,-31.738,-29.297,0.000
1621214711.702,-24.414,-31.738,-38.086,-31.250,0.000
1621214711.706,-27.344,-32.715,-61.523,-24.414,0.000
1621214711.710,-36.621,-33.691,-57.129,-21.484,0.000
1621214711.714,-31.738,-36.621,-48.340,-20.996,0.000
1621214711.718,-22.949,-39.062,-42.969,-17.578,0.000
1621214711.722,-21.484,-40.527,-36.621,-14.648,0.000
1621214711.725,-19.531,-42.969,-38.574,-20.020,0.000
1621214711.729,-24.414,-37.598,-42.480,-26.367,0.000
1621214711.733,-23.926,-31.738,-45.410,-23.926,0.000
1621214711.737,-16.113,-34.180,-40.527,-13.672,0.000
1621214711.741,-13.672,-37.109,-31.250,-14.648,0.000
1621214711.745,-16.602,-33.203,-34.180,-21.973,0.000
1621214711.749,-19.531,-34.180,-39.551,-24.414,0.000
1621214711.753,-17.578,-38.574,-39.062,-20.020,0.000
1621214711.757,-14.648,-34.668,-34.180,-8.301,0.000
1621214711.761,-14.160,-31.738,-38.086,-10.254,0.000
1621214711.764,-9.277,-28.809,-48.340,-15.625,0.000
1621214711.768,-5.371,-31.250,-33.691,-15.137,0.000
1621214711.772,-11.719,-34.668,-33.203,-17.578,0.000
1621214711.776,-21.484,-30.273,-47.852,-26.367,0.000
1621214711.780,-33.203,-33.691,-38.574,-26.367,0.000
1621214711.784,-28.320,-34.668,-27.832,-17.090,0.000
1621214711.788,-17.090,-29.785,-32.715,-17.578,0.000
1621214711.792,-20.996,-32.227,-40.039,-18.555,0.000
1621214711.796,-13.184,-25.391,-30.762,-16.602,0.000
1621214711.800,-8.789,-18.555,-22.461,-13.672,0.000
1621214711.803,-16.113,-21.484,-32.715,-15.137,0.000
1621214711.807,-18.555,-23.438,-39.551,-19.043,0.000
1621214711.811,-21.973,-30.762,-33.203,-18.555,0.000
1621214711.815,-17.090,-33.203,-31.250,-24.414,0.000
1621214711.819,-17.578,-29.785,-31.738,-21.484,0.000
1621214711.823,-24.902,-33.203,-27.832,-22.461,0.000
1621214711.827,-20.996,-31.738,-26.367,-32.227,0.000
1621214711.831,-24.414,-30.762,-31.250,-26.367,0.000
1621214711.835,-30.273,-33.203,-40.039,-21.484,0.000
1621214711.839,-27.344,-28.320,-37.109,-22.949,0.000
1621214711.843,-28.809,-30.273,-38.574,-28.320,0.000
1621214711.846,-24.902,-32.227,-35.156,-29.297,0.000
1621214711.850,-18.555,-30.762,-25.879,-27.344,0.000
1621214711.854,-23.438,-38.086,-33.203,-25.879,0.000
1621214711.858,-22.949,-40.039,-44.922,-22.949,0.000
1621214711.862,-17.090,-38.574,-44.922,-26.855,0.000
1621214711.866,-18.555,-41.504,-34.180,-31.738,0.000
1621214711.870,-27.832,-39.062,-41.992,-23.438,0.000
1621214711.874,-23.926,-34.180,-43.945,-9.766,0.000
1621214711.878,-21.973,-33.203,-31.738,-12.695,0.000
1621214711.882,-27.832,-31.250,-31.738,-16.113,0.000
1621214711.886,-28.809,-30.273,-28.320,-13.184,0.000
1621214711.889,-22.461,-29.785,-31.250,-11.230,0.000
1621214711.893,-18.066,-35.645,-31.250,-16.113,0.000
1621214711.897,-21.484,-33.203,-28.809,-18.555,0.000
1621214711.901,-22.461,-26.855,-47.363,-10.742,0.000
1621214711.905,-16.602,-26.855,-51.758,-13.672,0.000
1621214711.909,-18.555,-33.691,-42.969,-23.438,0.000
1621214711.913,-14.648,-35.156,-41.016,-29.785,0.000
1621214711.917,-11.230,-33.203,-37.109,-29.785,0.000
1621214711.921,-13.184,-34.668,-35.156,-23.926,0.000
1621214711.925,-15.625,-34.180,-22.949,-21.484,0.000
1621214711.929,-23.926,-38.086,-26.855,-26.367,0.000
1621214711.932,-22.949,-43.945,-39.551,-24.414,0.000
1621214711.936,-26.855,-45.410,-34.668,-18.555,0.000
1621214711.940,-30.762,-36.133,-35.156,-23.438,0.000
1621214711.944,-16.602,-32.715,-32.227,-30.273,0.000
1621214711.948,-22.461,-31.250,-36.133,-38.574,0.000
1621214711.952,-21.484,-23.926,-39.062,-31.738,0.000
1621214711.956,-13.184,-27.832,-34.668,-25.879,0.000
1621214711.960,-21.973,-30.273,-36.621,-33.691,0.000
1621214711.964,-22.461,-33.691,-33.691,-38.086,0.000
1621214711.968,-17.090,-36.621,-26.855,-32.227,0.000
1621214711.971,-23.438,-33.203,-24.414,-23.438,0.000
1621214711.975,-24.414,-31.250,-37.109,-31.738,0.000
1621214711.979,-22.461,-29.785,-39.062,-33.203,0.000
1621214711.983,-26.367,-32.227,-37.598,-24.902,0.000
1621214711.987,-20.508,-30.273,-34.668,-29.785,0.000
1621214711.991,-10.254,-27.344,-31.250,-22.949,0.000
1621214711.995,-14.648,-29.785,-43.457,-25.391,0.000
1621214711.999,-25.879,-32.715,-37.109,-35.645,0.000
1621214712.003,-40.039,-36.133,-24.902,-35.156,0.000
1621214712.007,-29.297,-35.156,-31.250,-31.250,0.000
1621214712.011,-18.066,-35.156,-34.180,-33.691,0.000
1621214712.014,-27.344,-34.180,-35.645,-32.227,0.000
1621214712.018,-27.344,-29.785,-39.551,-26.367,0.000
1621214712.022,-17.578,-28.809,-32.715,-22.461,0.000
1621214712.026,-20.996,-26.855,-24.414,-18.555,0.000
1621214712.030,-32.227,-31.250,-32.715,-25.391,0.000
1621214712.034,-22.461,-33.691,-39.551,-29.785,0.000
1621214712.038,-12.695,-31.738,-32.715,-17.090,0.000
1621214712.042,-15.137,-32.715,-30.762,-12.695,0.000
1621214712.046,-11.719,-31.738,-33.691,-23.438,0.000
1621214712.050,-9.766,-27.344,-40.039,-29.297,0.000
1621214712.054,-15.625,-28.809,-43.945,-18.066,0.000
1621214712.057,-15.625,-30.273,-41.504,-8.789,0.000
1621214712.061,-20.020,-31.250,-39.551,-21.973,0.000
1621214712.065,-32.227,-30.762,-41.992,-32.227,0.000
1621214712.069,-28.320,-30.762,-41.016,-25.879,0.000
1621214712.073,-23.438,-31.250,-36.621,-24.414,0.000
1621214712.077,-30.273,-28.809,-24.414,-36.133,0.000
1621214712.081,-21.484,-27.344,-25.879,-36.133,0.000
1621214712.085,-20.996,-30.762,-29.785,-24.414,0.000
1621214712.089,-21.484,-30.273,-33.203,-20.508,0.000
1621214712.093,-16.602,-31.250,-49.805,-34.180,0.000
1621214712.096,-13.672,-30.762,-46.387,-41.992,0.000
1621214712.100,-22.949,-27.832,-33.691,-33.203,0.000
1621214712.104,-28.320,-29.297,-30.762,-27.832,0.000
1621214712.108,-26.367,-31.738,-39.062,-30.762,0.000
1621214712.112,-26.855,-33.691,-41.504,-35.645,0.000
1621214712.116,-19.531,-24.902,-38.086,-31.738,0.000
1621214712.120,-20.508,-21.973,-35.156,-35.156,0.000
1621214712.124,-25.879,-28.320,-35.645,-39.551,0.000
1621214712.128,-23.438,-29.785,-36.133,-29.785,0.000
1621214712.132,-28.809,-27.832,-36.133,-33.203,0.000
1621214712.135,-32.715,-25.879,-37.598,-36.133,0.000
1621214712.139,-30.273,-25.391,-39.062,-26.367,0.000
1621214712.143,-25.391,-29.297,-36.621,-26.367,0.000
1621214712.147,-24.414,-32.227,-37.109,-34.180,0.000
1621214712.151,-30.273,-30.762,-42.480,-33.691,0.000
1621214712.155,-24.414,-30.762,-45.410,-23.926,0.000
1621214712.159,-13.672,-25.391,-41.504,-23.438,0.000
1621214712.163,-14.648,-22.949,-32.227,-31.250,0.000
1621214712.167,-20.508,-25.391,-32.227,-32.715,0.000
1621214712.171,-31.738,-28.809,-33.203,-34.180,0.000
1621214712.175,-32.227,-32.715,-33.203,-29.785,0.000
1621214712.178,-22.949,-32.715,-31.738,-26.855,0.000
1621214712.182,-19.531,-33.691,-35.156,-32.715,0.000
1621214712.186,-14.648,-36.133,-44.922,-30.762,0.000
1621214712.190,-17.578,-36.621,-34.668,-22.949,0.000
1621214712.194,-27.344,-36.133,-24.902,-25.391,0.000
1621214712.198,-27.832,-30.762,-29.297,-23.926,0.000
1621214712.202,-22.461,-32.227,-28.320,-13.184,0.000
1621214712.206,-20.996,-30.762,-21.484,-8.301,0.000
1621214712.210,-27.832,-31.738,-27.344,-17.090,0.000
1621214712.214,-25.879,-31.738,-33.203,-21.484,0.000
1621214712.218,-16.602,-28.809,-30.762,-14.160,0.000
1621214712.221,-11.230,-29.297,-27.832,-8.789,0.000
1621214712.225,-13.184,-31.738,-25.879,-17.578,0.000
1621214712.229,-20.508,-36.621,-30.273,-25.391,0.000
1621214712.233,-20.020,-32.715,-30.273,-22.461,0.000
1621214712.237,-19.043,-26.855,-32.227,-20.996,0.000
1621214712.241,-24.902,-36.133,-43.457,-29.785,0.000
1621214712.245,-31.250,-44.434,-43.457,-42.969,0.000
1621214712.249,-33.691,-41.504,-38.574,-39.551,0.000
1621214712.253,-26.855,-34.180,-36.133,-29.785,0.000
1621214712.257,-26.855,-33.691,-26.367,-31.250,0.000
1621214712.261,-29.297,-35.645,-25.391,-29.785,0.000
1621214712.264,-22.949,-34.180,-32.715,-19.043,0.000
1621214712.268,-20.508,-34.668,-33.691,-21.484,0.000
1621214712.272,-21.484,-36.621,-40.527,-25.391,0.000
1621214712.276,-18.066,-37.109,-39.062,-28.320,0.000
1621214712.280,-20.020,-35.645,-26.367,-28.809,0.000
1621214712.284,-26.855,-36.621,-26.855,-30.762,0.000
1621214712.288,-26.367,-33.203,-41.504,-27.832,0.000
1621214712.292,-20.996,-27.832,-48.828,-24.414,0.000
1621214712.296,-34.180,-33.691,-41.992,-31.738,0.000
1621214712.300,-36.133,-31.738,-36.621,-22.949,0.000
1621214712.303,-14.160,-26.855,-33.691,-10.254,0.000
1621214712.307,-10.254,-25.879,-28.320,-8.301,0.000
1621214712.311,-21.484,-28.809,-29.785,-13.672,0.000
1621214712.315,-31.250,-34.180,-40.527,-25.391,0.000
1621214712.319,-22.461,-35.156,-41.016,-27.344,0.000
1621214712.323,-20.508,-32.715,-42.969,-21.484,0.000
1621214712.327,-32.227,-35.645,-48.828,-25.391,0.000
1621214712.331,-31.738,-41.992,-41.504,-27.832,0.000
1621214712.335,-26.367,-37.109,-32.715,-21.973,0.000
1621214712.339,-26.855,-34.180,-35.645,-24.414,0.000
1621214712.343,-26.367,-35.645,-38.086,-28.809,0.000
1621214712.346,-27.344,-38.086,-36.621,-30.273,0.000
1621214712.350,-34.180,-37.109,-34.180,-33.691,0.000
1621214712.354,-34.668,-36.133,-34.180,-26.367,0.000
1621214712.358,-35.645,-35.645,-42.969,-24.902,0.000
1621214712.362,-28.320,-33.691,-38.086,-31.738,0.000
1621214712.366,-20.020,-35.156,-25.879,-25.391,0.000
1621214712.370,-19.531,-34.668,-23.926,-12.695,0.000
1621214712.374,-22.949,-30.273,-31.250,-15.625,0.000
1621214712.378,-22.949,-28.809,-35.156,-25.879,0.000
1621214712.382,-20.020,-31.738,-30.762,-23.926,0.000
1621214712.386,-34.180,-32.227,-34.668,-28.320,0.000
1621214712.389,-34.668,-21.973,-38.574,-24.414,0.000
1621214712.393,-21.484,-21.484,-34.668,-24.414,0.000
1621214712.397,-24.902,-29.785,-35.156,-31.738,0.000
1621214712.401,-21.973,-27.344,-41.016,-25.879,0.000
1621214712.405,-22.949,-27.344,-42.969,-25.879,0.000
1621214712.409,-29.785,-29.297,-43.457,-36.621,0.000
1621214712.413,-21.484,-27.832,-32.715,-38.086,0.000
1621214712.417,-20.508,-24.414,-28.320,-30.762,0.000
1621214712.421,-27.344,-22.949,-31.250,-34.180,0.000
1621214712.425,-39.551,-30.762,-31.738,-44.434,0.000
1621214712.428,-56.641,-40.527,-28.320,-51.270,0.000
1621214712.432,-53.223,-36.621,-25.391,-52.734,0.000
1621214712.436,-62.988,-29.785,-23.926,-63.965,0.000
1621214712.440,-88.379,-30.273,-24.902,-80.566,0.000
1621214712.444,-96.191,-34.180,-22.461,-86.426,0.000
1621214712.448,-106.445,-33.203,-14.648,-105.957,0.000
1621214712.452,-135.742,-21.484,-10.742,-133.301,0.000
1621214712.456,-150.879,-26.855,-8.301,-145.508,0.000
1621214712.460,-165.039,-31.250,-10.254,-165.527,0.000
1621214712.464,-191.406,-33.691,-9.766,-192.383,0.000
1621214712.468,-211.426,-43.457,-10.742,-202.637,0.000
1621214712.471,-220.215,-43.457,-14.160,-196.289,0.000
1621214712.475,-218.262,-42.480,-10.742,-200.684,0.000
1621214712.479,-216.797,-44.434,-13.184,-205.078,0.000
1621214712.483,-206.543,-41.504,-17.578,-195.801,0.000
1621214712.487,-201.660,-41.504,-21.484,-179.199,0.000
1621214712.491,-193.848,-43.457,-21.973,-160.645,0.000
1621214712.495,-178.223,-37.109,-6.348,-158.203,0.000
1621214712.499,-171.875,-34.668,-3.418,-157.227,0.000
1621214712.503,-166.504,-38.086,-14.648,-143.555,0.000
1621214712.507,-154.297,-38.574,-15.137,-130.371,0.000
1621214712.510,-147.949,-39.062,-6.348,-131.836,0.000
1621214712.514,-142.090,-41.504,-11.230,-131.348,0.000
1621214712.518,-130.371,-45.898,-27.832,-117.676,0.000
1621214712.522,-117.188,-40.527,-35.156,-98.145,0.000
1621214712.526,-106.934,-38.086,-38.086,-93.750,0.000
1621214712.530,-108.398,-47.363,-37.109,-99.609,0.000
1621214712.534,-94.238,-46.387,-37.598,-94.238,0.000
1621214712.538,-85.938,-37.598,-28.320,-81.543,0.000
1621214712.542,-86.914,-40.039,-26.855,-74.707,0.000
1621214712.546,-62.012,-40.527,-33.203,-75.195,0.000
1621214712.550,-49.805,-41.504,-26.855,-64.453,0.000
1621214712.553,-45.898,-46.875,-33.203,-48.828,0.000
1621214712.557,-40.527,-40.039,-46.875,-38.086,0.000
1621214712.561,-36.621,-34.668,-50.293,-29.297,0.000
1621214712.565,-26.855,-37.598,-50.781,-22.461,0.000
1621214712.569,-13.672,-39.551,-51.270,-16.113,0.000
1621214712.573,-7.324,-33.691,-29.297,2.930,0.000
1621214712.577,-0.488,-36.133,-22.949,6.836,0.000
1621214712.581,5.859,-42.480,-46.387,5.859,0.000
1621214712.585,19.531,-37.109,-54.199,19.531,0.000
1621214712.589,32.715,-29.297,-36.133,20.508,0.000
1621214712.592,29.785,-31.738,-24.414,25.879,0.000
1621214712.596,26.367,-35.156,-38.574,28.809,0.000
1621214712.600,41.016,-28.320,-36.621,34.668,0.000
1621214712.604,41.992,-28.809,-31.250,43.945,0.000
1621214712.608,35.645,-29.785,-46.387,48.828,0.000
1621214712.612,34.180,-29.297,-40.039,41.992,0.000
1621214712.616,23.926,-30.762,-39.062,33.691,0.000
1621214712.620,31.250,-26.855,-45.410,42.969,0.000
1621214712.624,47.363,-20.020,-46.875,46.387,0.000
1621214712.628,43.945,-22.949,-53.223,40.039,0.000
1621214712.632,44.434,-29.785,-50.781,34.668,0.000
1621214712.635,47.363,-30.762,-45.898,28.809,0.000
1621214712.639,45.898,-30.762,-36.133,31.738,0.000
1621214712.643,42.969,-30.273,-35.156,35.645,0.000
1621214712.647,40.039,-29.297,-34.668,29.785,0.000
1621214712.651,40.039,-28.320,-29.297,36.133,0.000
1621214712.655,41.992,-24.414,-33.203,45.898,0.000
1621214712.659,47.852,-21.484,-40.039,40.527,0.000
1621214712.663,51.758,-28.809,-39.062,39.551,0.000
1621214712.667,49.805,-32.715,-49.316,43.945,0.000
1621214712.671,45.410,-27.344,-49.316,45.898,0.000
1621214712.675,41.016,-26.367,-34.180,45.898,0.000
1621214712.678,46.387,-28.320,-42.480,39.551,0.000
1621214712.682,45.410,-33.691,-48.828,34.180,0.000
1621214712.686,34.668,-37.598,-42.969,30.273,0.000
1621214712.690,28.320,-32.715,-44.922,24.414,0.000
1621214712.694,25.391,-28.809,-50.293,18.555,0.000
1621214712.698,27.344,-28.809,-43.945,20.996,0.000
1621214712.702,26.855,-28.320,-43.945,25.879,0.000
1621214712.706,27.344,-30.762,-47.852,25.391,0.000
1621214712.710,28.320,-28.809,-38.574,27.344,0.000
1621214712.714,14.160,-29.297,-47.852,17.090,0.000
1621214712.718,10.742,-29.785,-39.551,10.742,0.000
1621214712.721,14.160,-26.367,-22.949,16.113,0.000
1621214712.725,6.836,-31.738,-33.691,12.207,0.000
1621214712.729,16.113,-29.297,-32.227,8.789,0.000
1621214712.733,23.438,-26.367,-25.391,8.789,0.000
1621214712.737,18.555,-30.273,-28.320,13.672,0.000
1621214712.741,19.043,-32.715,-26.367,22.461,0.000
1621214712.745,21.484,-32.715,-20.020,14.648,0.000
1621214712.749,15.625,-32.715,-32.715,11.230,0.000
1621214712.753,8.789,-39.551,-30.762,12.207,0.000
1621214712.757,9.277,-38.574,-22.461,13.672,0.000
1621214712.760,10.254,-29.297,-21.973,17.578,0.000
1621214712.764,12.207,-29.785,-16.113,11.230,0.000
1621214712.768,14.160,-32.227,-17.090,12.207,0.000
1621214712.772,14.648,-30.273,-20.996,19.043,0.000
1621214712.776,13.672,-33.203,-26.855,13.672,0.000
1621214712.780,7.324,-36.133,-31.738,-1.953,0.000
1621214712.784,4.883,-33.691,-37.109,-1.465,0.000
1621214712.788,12.695,-30.762,-27.832,16.113,0.000
1621214712.792,13.184,-31.250,-30.762,9.277,0.000
1621214712.796,3.906,-27.344,-53.711,-6.348,0.000
1621214712.800,-7.812,-30.762,-48.340,-4.883,0.000
1621214712.803,1.465,-35.156,-33.203,3.906,0.000
1621214712.807,5.859,-30.273,-35.645,1.465,0.000
1621214712.811,-2.930,-26.855,-36.133,-5.859,0.000
1621214712.815,-3.906,-27.344,-28.320,-6.836,0.000
1621214712.819,1.465,-33.203,-29.785,3.906,0.000
1621214712.823,6.836,-30.273,-36.133,11.230,0.000
1621214712.827,11.230,-25.391,-35.156,3.418,0.000
1621214712.831,12.695,-27.832,-33.203,-8.789,0.000
1621214712.835,0.488,-27.344,-37.598,-8.301,0.000
1621214712.839,-4.395,-26.855,-33.691,1.953,0.000
1621214712.843,-1.465,-29.297,-23.926,-3.418,0.000
1621214712.846,-3.906,-33.203,-23.926,-12.207,0.000
1621214712.850,3.906,-28.320,-17.090,0.000,0.000
1621214712.854,-1.465,-29.785,-20.020,2.441,0.000
1621214712.858,-10.254,-34.180,-45.410,-8.301,0.000
1621214712.862,-8.789,-34.180,-49.316,-11.719,0.000
1621214712.866,-14.160,-31.738,-43.457,-17.090,0.000
1621214712.870,-18.066,-31.738,-41.992,-19.043,0.000
1621214712.874,-10.254,-36.133,-35.156,-17.090,0.000
1621214712.878,3.418,-35.645,-33.691,-15.625,0.000
1621214712.882,8.789,-33.203,-39.062,-12.207,0.000
1621214712.885,-6.348,-30.273,-39.062,-14.648,0.000
1621214712.889,-14.160,-36.133,-37.109,-19.043,0.000
1621214712.893,-8.301,-38.086,-37.598,-17.578,0.000
1621214712.897,-6.348,-29.785,-39.062,-16.113,0.000
1621214712.901,-8.789,-29.785,-38.086,-14.648,0.000
1621214712.905,-6.836,-33.203,-31.250,-7.812,0.000
1621214712.909,-13.184,-34.180,-26.367,-9.277,0.000
1621214712.913,-27.344,-36.133,-41.016,-22.949,0.000
1621214712.917,-25.879,-40.527,-48.340,-25.391,0.000
1621214712.921,-17.090,-41.016,-39.062,-20.508,0.000
1621214712.924,-19.531,-41.504,-37.109,-20.508,0.000
1621214712.928,-22.949,-35.645,-35.645,-20.996,0.000
1621214712.932,-20.020,-33.203,-33.691,-17.090,0.000
1621214712.936,-19.043,-37.109,-44.922,-18.066,0.000
1621214712.940,-14.648,-33.203,-47.363,-21.484,0.000
1621214712.944,-14.648,-26.367,-29.297,-17.090,0.000
1621214712.948,-9.277,-22.461,-27.344,-17.578,0.000
1621214712.952,-9.277,-28.320,-31.250,-20.020,0.000
1621214712.956,-14.160,-32.227,-37.109,-18.066,0.000
1621214712.960,-16.602,-33.691,-45.898,-24.902,0.000
1621214712.964,-26.367,-38.086,-45.410,-38.086,0.000
1621214712.967,-24.414,-38.086,-45.410,-39.551,0.000
1621214712.971,-14.648,-33.691,-41.504,-27.832,0.000
1621214712.975,-16.602,-27.832,-38.574,-26.367,0.000
1621214712.979,-20.020,-30.762,-31.738,-26.367,0.000
1621214712.983,-13.672,-35.156,-18.555,-20.020,0.000
1621214712.987,-17.578,-33.203,-25.879,-23.438,0.000
1621214712.991,-30.762,-30.762,-42.480,-30.273,0.000
1621214712.995,-27.344,-30.273,-45.898,-36.133,0.000
1621214712.999,-21.973,-27.344,-33.691,-37.109,0.000
1621214713.003,-24.902,-23.438,-30.273,-21.484,0.000
1621214713.007,-23.438,-28.809,-45.898,-14.160,0.000
1621214713.010,-20.020,-27.344,-32.227,-21.973,0.000
1621214713.014,-19.043,-26.855,-12.207,-17.578,0.000
1621214713.018,-9.766,-30.273,-18.555,-11.230,0.000
1621214713.022,-7.324,-28.809,-13.184,-9.766,0.000
1621214713.026,-13.672,-30.273,-3.906,-5.859,0.000
1621214713.030,-13.672,-28.320,-27.344,-12.695,0.000
1621214713.034,-18.555,-29.785,-39.062,-20.508,0.000
1621214713.038,-14.160,-31.738,-34.668,-16.602,0.000
1621214713.042,-10.742,-30.762,-36.133,-15.625,0.000
1621214713.046,-16.602,-34.668,-27.344,-24.414,0.000
1621214713.050,-12.207,-37.109,-25.879,-28.320,0.000
1621214713.053,-10.254,-35.156,-21.973,-25.391,0.000
1621214713.057,-18.066,-36.133,-19.043,-20.020,0.000
1621214713.061,-26.367,-38.574,-31.738,-23.438,0.000
1621214713.065,-15.625,-30.762,-39.551,-27.832,0.000
1621214713.069,-12.695,-32.715,-37.109,-24.902,0.000
1621214713.073,-17.090,-35.156,-41.504,-22.949,0.000
1621214713.077,-14.160,-31.250,-44.922,-30.762,0.000
1621214713.081,-29.785,-29.785,-27.344,-30.273,0.000
1621214713.085,-33.691,-28.809,-14.160,-20.996,0.000
1621214713.089,-22.949,-30.762,-20.020,-18.066,0.000
1621214713.092,-18.066,-32.227,-35.156,-14.160,0.000
1621214713.096,-17.090,-27.832,-37.598,-19.531,0.000
1621214713.100,-24.902,-25.391,-23.438,-22.461,0.000
1621214713.104,-22.949,-28.320,-21.973,-14.648,0.000
1621214713.108,-21.973,-32.715,-39.062,-18.555,0.000
1621214713.112,-24.902,-35.645,-47.363,-28.320,0.000
1621214713.116,-23.926,-38.086,-37.109,-24.902,0.000
1621214713.120,-29.297,-37.109,-32.227,-18.555,0.000
1621214713.124,-27.832,-37.598,-43.945,-15.137,0.000
1621214713.128,-28.320,-40.039,-46.875,-17.090,0.000
1621214713.132,-23.438,-40.527,-42.969,-21.973,0.000
1621214713.135,-14.648,-33.691,-32.715,-20.508,0.000
1621214713.139,-13.184,-28.320,-24.902,-15.625,0.000
1621214713.143,-11.719,-32.227,-32.715,-17.578,0.000
1621214713.147,-18.066,-32.715,-42.969,-21.973,0.000
1621214713.151,-18.555,-33.691,-41.504,-20.020,0.000
1621214713.155,-18.066,-30.273,-33.203,-20.020,0.000
1621214713.159,-30.273,-29.785,-35.645,-31.250,0.000
1621214713.163,-21.484,-33.203,-34.180,-29.297,0.000
1621214713.167,-12.695,-34.668,-29.785,-16.602,0.000
1621214713.171,-17.578,-29.785,-34.668,-10.254,0.000
1621214713.175,-11.719,-30.273,-36.133,-6.348,0.000
1621214713.178,-13.672,-30.762,-28.320,-13.672,0.000
1621214713.182,-27.344,-28.809,-25.391,-19.043,0.000
1621214713.186,-26.367,-30.273,-25.879,-15.625,0.000
1621214713.190,-24.414,-33.691,-30.762,-19.043,0.000
1621214713.194,-28.809,-38.086,-36.621,-24.902,0.000
1621214713.198,-25.391,-36.621,-45.898,-22.461,0.000
1621214713.202,-18.066,-34.668,-41.504,-24.414,0.000
1621214713.206,-26.367,-33.203,-33.203,-25.879,0.000
1621214713.210,-27.832,-36.621,-35.645,-25.391,0.000
1621214713.214,-24.902,-41.504,-37.598,-15.137,0.000
1621214713.217,-28.809,-41.992,-41.992,-7.812,0.000
1621214713.221,-24.414,-39.062,-36.621,-11.230,0.000
1621214713.225,-18.066,-35.645,-24.902,-20.508,0.000
1621214713.229,-20.508,-31.738,-32.715,-23.926,0.000
1621214713.233,-24.902,-36.133,-42.480,-25.391,0.000
1621214713.237,-28.320,-38.574,-48.828,-24.902,0.000
1621214713.241,-25.391,-36.133,-39.551,-24.414,0.000
1621214713.245,-21.973,-33.203,-38.086,-31.250,0.000
1621214713.249,-24.414,-29.785,-38.574,-30.273,0.000
1621214713.253,-18.066,-31.738,-30.762,-20.508,0.000
1621214713.257,-15.625,-34.180,-39.062,-12.695,0.000
1621214713.260,-28.320,-37.109,-42.480,-25.391,0.000
1621214713.264,-27.832,-35.156,-29.297,-35.156,0.000
1621214713.268,-19.531,-35.156,-21.484,-28.320,0.000
1621214713.272,-18.555,-32.715,-28.809,-20.508,0.000
1621214713.276,-24.414,-30.762,-39.062,-21.484,0.000
1621214713.280,-21.484,-32.227,-43.945,-18.555,0.000
1621214713.284,-4.883,-31.250,-41.992,-8.789,0.000
1621214713.288,-9.277,-30.762,-29.297,-17.578,0.000
1621214713.292,-20.996,-33.691,-18.066,-27.832,0.000
1621214713.296,-17.090,-33.203,-20.508,-26.367,0.000
1621214713.299,-11.230,-31.250,-23.926,-21.973,0.000
1621214713.303,-10.742,-33.691,-25.391,-19.043,0.000
1621214713.307,-16.113,-30.762,-26.855,-15.137,0.000
1621214713.311,-17.578,-25.879,-25.879,-12.695,0.000
1621214713.315,-18.066,-24.902,-35.645,-19.043,0.000
1621214713.319,-19.531,-29.297,-40.527,-22.461,0.000
1621214713.323,-20.020,-32.227,-44.922,-20.996,0.000
1621214713.327,-29.297,-33.691,-43.945,-27.832,0.000
1621214713.331,-27.344,-37.109,-29.785,-29.785,0.000
1621214713.335,-18.066,-35.645,-23.438,-17.578,0.000
1621214713.339,-18.066,-36.621,-26.855,-19.043,0.000
1621214713.342,-19.531,-37.109,-30.762,-20.996,0.000
1621214713.346,-26.367,-37.109,-27.832,-24.414,0.000
1621214713.350,-31.738,-38.086,-31.738,-27.832,0.000
1621214713.354,-20.508,-32.715,-31.738,-21.484,0.000
1621214713.358,-17.578,-36.133,-27.344,-17.090,0.000
1621214713.362,-30.762,-41.504,-32.715,-29.297,0.000
1621214713.366,-37.598,-40.039,-28.320,-33.203,0.000
1621214713.370,-33.203,-37.598,-21.973,-24.902,0.000
1621214713.374,-25.879,-35.156,-23.438,-21.484,0.000
1621214713.378,-23.438,-35.156,-22.949,-20.020,0.000
1621214713.382,-24.414,-37.598,-33.203,-20.508,0.000
1621214713.385,-25.879,-38.574,-47.363,-25.391,0.000
1621214713.389,-21.484,-34.668,-37.598,-16.602,0.000
1621214713.393,-22.461,-31.738,-30.273,-18.555,0.000
1621214713.397,-22.461,-32.715,-41.504,-35.156,0.000
1621214713.401,-19.043,-31.250,-30.273,-29.297,0.000
1621214713.405,-18.555,-34.180,-22.949,-19.043,0.000
1621214713.409,-18.555,-39.062,-42.480,-26.855,0.000
1621214713.413,-25.391,-37.109,-44.434,-33.691,0.000
1621214713.417,-15.625,-38.086,-32.715,-20.508,0.000
1621214713.421,-10.254,-39.551,-42.480,-16.602,0.000
1621214713.424,-25.879,-36.133,-46.387,-21.973,0.000
1621214713.428,-24.414,-32.715,-36.621,-25.879,0.000
1621214713.432,-14.648,-37.109,-29.785,-28.809,0.000
1621214713.436,-10.742,-37.598,-23.926,-21.484,0.000
1621214713.440,-13.184,-31.250,-30.762,-14.160,0.000
1621214713.444,-20.020,-30.273,-44.434,-23.926,0.000
1621214713.448,-30.273,-32.715,-51.270,-35.645,0.000
1621214713.452,-18.066,-30.762,-43.457,-23.438,0.000
1621214713.456,-16.113,-31.738,-24.902,-9.277,0.000
1621214713.460,-30.273,-40.039,-18.066,-20.020,0.000
1621214713.464,-25.879,-43.945,-26.855,-25.879,0.000
1621214713.467,-17.090,-38.086,-25.391,-16.602,0.000
1621214713.471,-15.625,-36.621,-28.809,-12.207,0.000
1621214713.475,-9.766,-35.645,-27.344,-11.230,0.000
1621214713.479,-3.418,-34.668,-17.578,-13.184,0.000
1621214713.483,-11.719,-36.133,-29.297,-21.973,0.000
1621214713.487,-19.043,-34.668,-41.992,-25.879,0.000
1621214713.491,-11.719,-37.598,-38.574,-17.090,0.000
1621214713.495,-4.395,-39.062,-34.668,-16.113,0.000
1621214713.499,-13.184,-35.156,-41.504,-22.461,0.000
1621214713.503,-9.277,-29.785,-44.434,-8.789,0.000
1621214713.507,-3.418,-22.949,-40.527,-3.418,0.000
1621214713.510,-17.578,-21.973,-34.668,-21.973,0.000
1621214713.514,-23.926,-33.691,-38.086,-31.250,0.000
1621214713.518,-32.227,-42.969,-33.691,-31.250,0.000
1621214713.522,-43.457,-46.875,-24.902,-35.156,0.000
1621214713.526,-50.781,-45.898,-34.180,-41.504,0.000
1621214713.530,-56.641,-36.133,-43.945,-53.711,0.000
1621214713.534,-65.430,-33.203,-38.086,-62.012,0.000
1621214713.538,-69.824,-38.086,-20.508,-58.105,0.000
1621214713.542,-62.012,-40.527,-8.789,-62.500,0.000
1621214713.546,-63.965,-41.992,-23.926,-65.918,0.000
1621214713.549,-66.406,-41.016,-41.016,-56.152,0.000
1621214713.553,-67.871,-45.898,-34.180,-54.688,0.000
1621214713.557,-89.844,-61.523,-43.457,-69.824,0.000
1621214713.561,-94.238,-55.176,-22.461,-82.520,0.000
1621214713.565,-83.496,-67.871,-17.090,-83.984,0.000
1621214713.569,-90.820,-62.012,-50.293,-77.637,0.000
1621214713.573,-94.727,-45.410,-21.973,-77.148,0.000
1621214713.577,-87.891,-48.828,-2.930,-81.055,0.000
1621214713.581,-85.449,-32.227,-1.465,-78.125,0.000
1621214713.585,-93.262,-51.270,-11.719,-72.266,0.000
1621214713.588,-89.844,-69.824,-10.254,-66.895,0.000
1621214713.592,-79.590,-60.547,-5.859,-64.941,0.000
1621214713.596,-76.660,-53.223,-26.855,-69.824,0.000
1621214713.600,-74.219,-49.316,-33.691,-69.336,0.000
1621214713.604,-72.754,-49.805,-28.809,-61.035,0.000
1621214713.608,-71.777,-48.828,-18.555,-51.758,0.000
1621214713.612,-67.871,-44.922,-21.484,-53.223,0.000
1621214713.616,-67.383,-47.363,-30.762,-55.176,0.000
1621214713.620,-68.359,-51.270,-39.551,-42.969,0.000
1621214713.624,-62.500,-41.504,-26.855,-42.969,0.000
1621214713.628,-50.781,-42.480,-24.902,-53.711,0.000
1621214713.631,-48.340,-51.270,-38.086,-51.758,0.000
1621214713.635,-52.246,-46.387,-32.715,-48.340,0.000
1621214713.639,-44.434,-42.969,-21.484,-36.133,0.000
1621214713.643,-37.109,-39.062,-23.438,-27.344,0.000
1621214713.647,-36.133,-37.109,-44.434,-29.297,0.000
1621214713.651,-27.832,-35.156,-41.992,-22.461,0.000
1621214713.655,-19.043,-30.273,-24.902,-12.695,0.000
1621214713.659,-9.277,-30.273,-20.508,-3.418,0.000
1621214713.663,-0.977,-30.762,-32.715,-4.883,0.000
1621214713.667,-7.324,-30.762,-38.574,-8.301,0.000
1621214713.671,-17.578,-34.180,-28.320,-3.906,0.000
1621214713.674,-11.719,-29.297,-26.367,-1.465,0.000
1621214713.678,-12.207,-16.602,-15.625,-5.371,0.000
1621214713.682,-17.578,-22.949,-22.461,-13.184,0.000
1621214713.686,-11.719,-32.715,-49.316,-13.184,0.000
1621214713.690,-5.859,-27.344,-40.527,-7.324,0.000
1621214713.694,0.000,-26.367,-35.645,-12.695,0.000
1621214713.698,0.000,-32.715,-59.570,-15.137,0.000
1621214713.702,3.418,-29.785,-54.688,-6.836,0.000
1621214713.706,16.113,-34.180,-36.621,-0.488,0.000
1621214713.710,20.020,-40.527,-47.852,2.441,0.000
1621214713.714,7.324,-37.109,-41.016,-6.348,0.000
1621214713.717,-0.488,-38.574,-25.391,-5.859,0.000
1621214713.721,-14.160,-30.762,-46.875,-6.836,0.000
1621214713.725,-25.391,-35.156,-51.270,-23.438,0.000
1621214713.729,-29.785,-36.621,-37.598,-27.832,0.000
1621214713.733,-41.504,-37.109,-47.852,-32.715,0.000
1621214713.737,-49.316,-41.016,-35.645,-37.109,0.000
1621214713.741,-48.828,-34.180,-10.742,-31.250,0.000
1621214713.745,-43.945,-26.855,-13.672,-27.344,0.000
1621214713.749,-39.551,-23.438,-21.484,-25.391,0.000
1621214713.753,-33.691,-24.414,-23.926,-20.996,0.000
1621214713.756,-28.320,-27.832,-29.785,-12.695,0.000
1621214713.760,-29.785,-30.762,-38.086,-15.625,0.000
1621214713.764,-27.344,-37.598,-40.527,-19.043,0.000
1621214713.768,-20.996,-40.039,-34.668,-20.996,0.000
1621214713.772,-11.719,-39.551,-39.062,-21.973,0.000
1621214713.776,-13.184,-36.621,-36.621,-9.277,0.000
1621214713.780,-15.625,-36.621,-46.875,-12.695,0.000
1621214713.784,-6.836,-43.457,-65.430,-16.602,0.000
1621214713.788,-7.324,-36.133,-55.664,-4.395,0.000
1621214713.792,-7.324,-33.691,-38.574,-8.301,0.000
1621214713.796,-12.695,-29.297,-34.180,-25.391,0.000
1621214713.799,-20.020,-27.832,-46.387,-26.367,0.000
1621214713.803,-17.578,-28.320,-43.945,-20.996,0.000
1621214713.807,-16.602,-20.508,-43.457,-24.902,0.000
1621214713.811,-18.066,-26.367,-48.828,-25.391,0.000
1621214713.815,-20.020,-41.016,-44.434,-21.484,0.000
1621214713.819,-15.137,-37.109,-42.480,-17.090,0.000
1621214713.823,-11.230,-25.879,-45.410,-11.230,0.000
1621214713.827,-11.719,-31.250,-40.527,-17.578,0.000
1621214713.831,-14.160,-30.273,-32.227,-26.367,0.000
1621214713.835,-19.043,-27.832,-48.828,-29.297,0.000
1621214713.839,-15.625,-24.902,-48.340,-22.461,0.000
1621214713.842,-13.672,-16.113,-41.504,-20.020,0.000
1621214713.846,-19.043,-21.973,-43.945,-23.438,0.000
1621214713.850,-22.461,-32.227,-33.691,-28.809,0.000
1621214713.854,-18.555,-32.715,-37.598,-17.578,0.000
1621214713.858,-19.043,-25.391,-40.527,-13.672,0.000
1621214713.862,-22.461,-24.414,-34.668,-32.715,0.000
1621214713.866,-21.973,-24.902,-33.203,-32.227,0.000
1621214713.870,-21.973,-28.809,-40.039,-22.949,0.000
1621214713.874,-15.625,-31.250,-44.434,-17.578,0.000
1621214713.878,-11.719,-32.715,-46.875,-25.879,0.000
1621214713.881,-12.207,-33.203,-48.828,-35.156,0.000
1621214713.885,-14.648,-33.691,-43.457,-32.227,0.000
1621214713.889,-22.949,-33.691,-41.992,-28.809,0.000
1621214713.893,-25.879,-36.133,-41.504,-32.715,0.000
1621214713.897,-23.926,-38.086,-35.645,-32.227,0.000
1621214713.901,-25.391,-34.180,-28.809,-22.949,0.000
1621214713.905,-29.297,-38.086,-28.809,-20.508,0.000
1621214713.909,-24.414,-35.156,-23.438,-16.602,0.000
1621214713.913,-20.020,-25.879,-21.484,-18.066,0.000
1621214713.917,-24.414,-28.809,-22.461,-25.391,0.000
1621214713.921,-27.344,-32.227,-37.598,-25.391,0.000
1621214713.924,-30.762,-33.691,-47.363,-22.949,0.000
1621214713.928,-31.738,-31.738,-41.016,-27.832,0.000
1621214713.932,-29.297,-32.227,-41.016,-26.855,0.000
1621214713.936,-25.391,-35.156,-39.062,-18.555,0.000
1621214713.940,-19.531,-33.203,-36.621,-17.578,0.000
1621214713.944,-13.184,-36.133,-32.227,-20.020,0.000
1621214713.948,-15.137,-41.992,-31.738,-23.926,0.000
1621214713.952,-24.414,-35.645,-32.715,-22.949,0.000
1621214713.956,-22.949,-33.691,-43.457,-20.020,0.000
1621214713.960,-23.926,-37.598,-51.270,-28.809,0.000
1621214713.963,-29.785,-37.109,-49.805,-34.180,0.000
1621214713.967,-33.203,-36.133,-44.922,-32.227,0.000
1621214713.971,-23.926,-36.621,-38.574,-27.832,0.000
1621214713.975,-8.789,-31.738,-37.598,-23.438,0.000
1621214713.979,-2.930,-28.320,-27.832,-22.461,0.000
1621214713.983,-2.441,-28.809,-20.996,-21.484,0.000
1621214713.987,-4.883,-29.785,-21.973,-18.066,0.000
1621214713.991,-15.137,-37.109,-30.762,-16.602,0.000
1621214713.995,-21.973,-36.133,-35.156,-26.855,0.000
1621214713.999,-21.484,-26.855,-35.156,-30.762,0.000
1621214714.003,-22.949,-26.855,-42.969,-30.273,0.000
1621214714.006,-22.949,-36.621,-45.898,-31.738,0.000
1621214714.010,-24.902,-36.621,-46.875,-28.320,0.000
1621214714.014,-31.738,-34.668,-44.922,-23.926,0.000
1621214714.018,-25.879,-38.574,-33.691,-9.766,0.000
1621214714.022,-11.719,-35.645,-28.809,-7.324,0.000
1621214714.026,-20.508,-32.227,-42.969,-25.879,0.000
1621214714.030,-22.461,-32.715,-42.480,-28.320,0.000
1621214714.034,-15.625,-34.668,-38.086,-24.902,0.000
1621214714.038,-14.160,-32.227,-43.945,-23.438,0.000
1621214714.042,-12.207,-23.926,-40.527,-16.113,0.000
1621214714.046,-5.371,-23.438,-40.527,-20.508,0.000
1621214714.049,-1.465,-25.879,-44.434,-14.648,0.000
1621214714.053,2.441,-20.996,-45.898,-7.812,0.000
1621214714.057,0.977,-24.414,-50.781,-14.160,0.000
1621214714.061,-5.371,-27.832,-59.570,-16.113,0.000
1621214714.065,-6.348,-24.414,-61.523,-20.508,0.000
1621214714.069,-7.324,-20.508,-56.641,-19.043,0.000
1621214714.073,0.488,-20.020,-62.012,-12.695,0.000
1621214714.077,5.859,-18.555,-64.453,-13.672,0.000
1621214714.081,9.766,-17.578,-52.734,-12.695,0.000
1621214714.085,6.836,-19.043,-52.246,-11.719,0.000
1621214714.088,-6.836,-18.066,-66.406,-11.719,0.000
1621214714.092,-8.301,-21.973,-55.664,-10.254,0.000
1621214714.096,-4.395,-25.391,-50.293,-16.602,0.000
1621214714.100,-2.441,-23.438,-61.035,-20.020,0.000
1621214714.104,-2.441,-23.926,-59.082,-16.113,0.000
1621214714.108,-4.395,-23.438,-42.480,-12.695,0.000
1621214714.112,2.930,-21.484,-47.852,-12.207,0.000
1621214714.116,4.883,-23.438,-55.176,-18.555,0.000
1621214714.120,-0.977,-28.320,-43.945,-20.996,0.000
1621214714.124,-2.441,-28.809,-43.457,-21.484,0.000
1621214714.128,-4.883,-32.715,-46.387,-20.508,0.000
1621214714.131,-4.395,-33.691,-41.992,-23.926,0.000
1621214714.135,-4.883,-29.297,-40.039,-30.273,0.000
1621214714.139,-3.418,-31.250,-44.434,-21.484,0.000
1621214714.143,-9.277,-30.273,-48.828,-17.090,0.000
1621214714.147,-16.113,-27.344,-51.758,-25.879,0.000
1621214714.151,-17.090,-29.297,-55.176,-22.949,0.000
1621214714.155,-20.996,-30.273,-50.293,-19.043,0.000
1621214714.159,-23.926,-38.086,-45.898,-26.855,0.000
1621214714.163,-26.367,-37.598,-41.504,-32.715,0.000
1621214714.167,-20.996,-34.180,-39.062,-34.180,0.000
1621214714.171,-20.508,-37.109,-42.480,-29.785,0.000
1621214714.174,-27.832,-32.227,-40.039,-24.414,0.000
1621214714.178,-29.785,-27.344,-44.434,-26.367,0.000
1621214714.182,-25.391,-27.344,-39.551,-26.855,0.000
1621214714.186,-18.066,-30.762,-41.016,-25.391,0.000
1621214714.190,-16.602,-25.391,-53.223,-25.391,0.000
1621214714.194,-19.531,-23.926,-50.781,-30.762,0.000
1621214714.198,-16.602,-30.762,-52.246,-32.715,0.000
1621214714.202,-20.508,-33.203,-45.898,-30.273,0.000
1621214714.206,-22.949,-32.227,-39.062,-30.762,0.000
1621214714.210,-20.508,-33.203,-45.410,-35.156,0.000
1621214714.213,-21.973,-34.668,-43.457,-35.645,0.000
1621214714.217,-15.625,-35.156,-35.645,-24.414,0.000
1621214714.221,-4.395,-29.785,-31.250,-14.648,0.000
1621214714.225,-8.789,-27.832,-31.250,-19.531,0.000
1621214714.229,-9.277,-28.320,-35.645,-15.625,0.000
1621214714.233,-5.371,-31.250,-38.574,-11.719,0.000
1621214714.237,-13.184,-31.250,-34.180,-20.996,0.000
1621214714.241,-9.766,-25.391,-36.621,-22.949,0.000
1621214714.245,-5.371,-27.832,-40.039,-26.367,0.000
1621214714.249,-7.324,-35.156,-42.969,-25.879,0.000
1621214714.253,-5.859,-32.715,-40.039,-12.207,0.000
1621214714.256,-3.906,-31.738,-41.016,-13.184,0.000
1621214714.260,-11.230,-32.715,-51.758,-23.438,0.000
1621214714.264,-15.137,-33.203,-41.016,-29.785,0.000
1621214714.268,-17.090,-38.574,-33.203,-30.273,0.000
1621214714.272,-22.461,-40.039,-31.250,-21.484,0.000
1621214714.276,-22.461,-38.574,-29.785,-24.414,0.000
1621214714.280,-19.043,-37.598,-34.668,-34.668,0.000
1621214714.284,-25.391,-32.227,-34.668,-36.621,0.000
1621214714.288,-25.879,-22.949,-33.691,-33.203,0.000
1621214714.292,-22.949,-28.320,-41.504,-39.062,0.000
1621214714.296,-27.832,-36.133,-39.062,-40.527,0.000
1621214714.299,-31.738,-31.738,-31.250,-33.691,0.000
1621214714.303,-25.879,-31.250,-34.180,-30.762,0.000
1621214714.307,-15.625,-31.250,-38.086,-23.438,0.000
1621214714.311,-12.207,-30.762,-36.133,-20.508,0.000
1621214714.315,-12.207,-32.715,-32.227,-17.578,0.000
1621214714.319,-17.578,-40.039,-30.762,-13.184,0.000
1621214714.323,-23.438,-36.621,-29.785,-20.996,0.000
1621214714.327,-18.066,-33.691,-33.691,-20.996,0.000
1621214714.331,-13.672,-38.086,-40.527,-20.020,0.000
1621214714.335,-20.508,-33.691,-37.109,-24.902,0.000
1621214714.338,-23.438,-34.668,-30.762,-21.484,0.000
1621214714.342,-16.602,-37.598,-35.156,-20.020,0.000
1621214714.346,-6.836,-29.297,-27.832,-18.066,0.000
1621214714.350,-3.418,-28.320,-27.344,-6.348,0.000
1621214714.354,-6.348,-33.691,-35.156,5.859,0.000
1621214714.358,-1.465,-35.645,-28.320,5.371,0.000
1621214714.362,-1.953,-36.133,-25.391,-0.977,0.000
1621214714.366,-8.301,-36.133,-31.250,0.977,0.000
1621214714.370,-2.930,-40.527,-27.832,12.695,0.000
1621214714.374,6.836,-43.457,-23.438,16.602,0.000
1621214714.378,3.906,-44.922,-24.414,12.695,0.000
1621214714.381,-0.977,-48.340,-20.996,12.695,0.000
1621214714.385,4.395,-43.457,-12.695,17.090,0.000
1621214714.389,8.789,-36.133,-19.531,20.508,0.000
1621214714.393,12.207,-32.715,-26.367,18.555,0.000
1621214714.397,9.766,-33.203,-20.996,7.812,0.000
1621214714.401,9.277,-33.203,-17.578,8.301,0.000
1621214714.405,13.184,-28.320,-9.277,18.066,0.000
1621214714.409,8.789,-29.297,-4.883,20.020,0.000
1621214714.413,7.812,-36.133,-25.391,5.859,0.000
1621214714.417,4.883,-40.527,-31.250,-8.301,0.000
1621214714.420,2.930,-41.992,-16.113,1.465,0.000
1621214714.424,-3.418,-38.574,-7.812,4.395,0.000
1621214714.428,-13.672,-39.551,-19.043,-7.324,0.000
1621214714.432,-11.230,-37.598,-28.320,-11.230,0.000
1621214714.436,-0.488,-33.691,-32.227,-0.977,0.000
1621214714.440,1.465,-39.551,-36.621,-0.488,0.000
1621214714.444,-6.836,-42.969,-31.738,-11.719,0.000
1621214714.448,-4.395,-37.598,-27.832,-13.672,0.000
1621214714.452,-2.930,-37.598,-28.320,-12.207,0.000
1621214714.456,-10.742,-38.086,-23.926,-7.812,0.000
1621214714.460,-10.742,-34.668,-19.531,-8.301,0.000
1621214714.463,-7.812,-35.645,-24.414,-13.184,0.000
1621214714.467,-7.812,-35.645,-29.785,-8.789,0.000
1621214714.471,-3.418,-31.738,-24.902,4.395,0.000
1621214714.475,0.488,-32.715,-24.902,1.465,0.000
1621214714.479,-4.883,-33.691,-26.367,-16.113,0.000
1621214714.483,-5.859,-27.344,-35.645,-20.996,0.000
1621214714.487,-8.301,-23.438,-37.598,-14.160,0.000
1621214714.491,-21.973,-29.297,-24.902,-14.160,0.000
1621214714.495,-24.414,-38.086,-26.367,-20.508,0.000
1621214714.499,-20.508,-36.621,-23.438,-16.602,0.000
1621214714.503,-12.695,-36.133,-25.879,-7.812,0.000
1621214714.506,0.977,-33.203,-35.156,-4.883,0.000
1621214714.510,5.371,-28.809,-29.297,-10.254,0.000
1621214714.514,1.465,-29.785,-20.996,-12.207,0.000
1621214714.518,-0.977,-29.297,-24.902,-11.230,0.000
1621214714.522,-5.371,-30.762,-38.086,-4.395,0.000
1621214714.526,-17.090,-27.344,-39.062,-6.348,0.000
1621214714.530,-18.555,-30.273,-32.715,-6.348,0.000
1621214714.534,-8.301,-37.598,-24.414,-6.348,0.000
1621214714.538,-8.789,-31.738,-29.297,-5.371,0.000
1621214714.542,-14.648,-27.344,-40.527,-0.977,0.000
1621214714.545,-14.160,-30.273,-33.203,-9.766,0.000
1621214714.549,-11.719,-31.738,-32.715,-10.742,0.000
1621214714.553,-9.277,-29.297,-27.344,-4.395,0.000
1621214714.557,-12.207,-28.320,-23.438,0.488,0.000
1621214714.561,-15.625,-26.367,-25.879,-0.977,0.000
1621214714.565,-20.020,-25.391,-26.855,-13.672,0.000
1621214714.569,-20.508,-28.320,-30.762,-19.531,0.000
1621214714.573,-19.043,-31.738,-36.621,-15.625,0.000
1621214714.577,-15.137,-34.180,-38.086,-14.648,0.000
1621214714.581,-16.113,-34.180,-28.809,-21.484,0.000
1621214714.585,-24.902,-37.109,-25.391,-20.996,0.000
1621214714.588,-26.367,-34.180,-36.133,-22.949,0.000
1621214714.592,-23.926,-27.344,-37.598,-32.715,0.000
1621214714.596,-26.855,-29.297,-29.785,-36.133,0.000
1621214714.600,-29.785,-28.320,-26.855,-29.297,0.000
1621214714.604,-26.367,-28.809,-27.344,-20.508,0.000
1621214714.608,-26.367,-30.762,-26.367,-21.973,0.000
1621214714.612,-29.297,-28.809,-22.461,-31.250,0.000
1621214714.616,-24.902,-30.762,-21.484,-30.762,0.000
1621214714.620,-30.273,-33.203,-29.297,-23.438,0.000
