timestamps,TP9,AF7,AF8,TP10,Right AUX
1621215152.386,-7.324,-26.855,-49.805,-34.180,0.000
1621215152.389,-7.812,-28.809,-50.293,-24.414,0.000
1621215152.393,-12.207,-27.832,-52.246,-27.344,0.000
1621215152.397,-15.137,-27.344,-51.270,-27.344,0.000
1621215152.401,-16.113,-27.832,-49.316,-35.645,0.000
1621215152.405,-19.531,-24.902,-48.340,-36.621,0.000
1621215152.409,-30.762,-26.367,-45.898,-23.926,0.000
1621215152.413,-30.273,-29.297,-49.316,-35.156,0.000
1621215152.417,-20.996,-28.809,-46.387,-39.062,0.000
1621215152.421,-17.578,-25.391,-35.156,-27.832,0.000
1621215152.425,-23.438,-23.438,-43.945,-17.578,0.000
1621215152.429,-36.621,-24.902,-52.246,-24.414,0.000
1621215152.432,-18.555,-23.438,-45.410,-35.645,0.000
1621215152.436,-14.648,-25.391,-50.293,-42.480,0.000
1621215152.440,-23.926,-24.902,-50.781,-32.715,0.000
1621215152.444,-24.902,-21.484,-46.387,-33.691,0.000
1621215152.448,-28.320,-26.855,-48.340,-44.434,0.000
1621215152.452,-24.902,-24.902,-49.316,-37.109,0.000
1621215152.456,-23.926,-20.996,-46.387,-34.180,0.000
1621215152.460,-24.414,-21.973,-46.387,-35.645,0.000
1621215152.464,-23.438,-20.996,-44.922,-27.344,0.000
1621215152.468,-17.090,-24.414,-42.480,-22.461,0.000
1621215152.472,-15.137,-31.738,-41.992,-27.344,0.000
1621215152.475,-16.602,-31.738,-41.992,-23.926,0.000
1621215152.479,-17.578,-30.762,-41.504,-18.555,0.000
1621215152.483,-12.207,-30.762,-43.945,-16.113,0.000
1621215152.487,-8.301,-27.832,-47.852,-9.277,0.000
1621215152.491,-12.695,-26.855,-54.199,-19.531,0.000
1621215152.495,-18.555,-23.926,-48.828,-23.438,0.000
1621215152.499,-35.645,-24.902,-45.898,-22.461,0.000
1621215152.503,-19.531,-27.832,-44.922,-22.949,0.000
1621215152.507,-15.625,-28.320,-36.621,-24.414,0.000
1621215152.511,-27.832,-29.297,-35.156,-27.832,0.000
1621215152.514,-30.273,-33.203,-37.109,-29.785,0.000
1621215152.518,-35.645,-31.250,-38.086,-40.527,0.000
1621215152.522,-32.227,-26.855,-34.180,-41.016,0.000
1621215152.526,-32.715,-26.367,-32.715,-34.668,0.000
1621215152.530,-36.621,-21.484,-38.574,-38.574,0.000
1621215152.534,-31.250,-19.043,-41.016,-34.668,0.000
1621215152.538,-34.180,-28.320,-32.227,-28.809,0.000
1621215152.542,-39.551,-33.203,-42.969,-39.551,0.000
1621215152.546,-44.434,-31.250,-48.828,-47.363,0.000
1621215152.550,-48.340,-33.691,-40.039,-46.387,0.000
1621215152.554,-48.828,-35.156,-44.434,-43.457,0.000
1621215152.557,-43.945,-32.227,-42.969,-42.480,0.000
1621215152.561,-44.434,-29.297,-46.387,-51.270,0.000
1621215152.565,-45.410,-31.738,-44.922,-47.852,0.000
1621215152.569,-39.062,-31.250,-37.109,-42.969,0.000
1621215152.573,-40.527,-30.762,-37.109,-39.551,0.000
1621215152.577,-35.645,-29.297,-34.180,-28.809,0.000
1621215152.581,-30.762,-25.391,-32.227,-30.762,0.000
1621215152.585,-26.855,-26.855,-34.668,-38.086,0.000
1621215152.589,-29.297,-32.227,-37.109,-39.551,0.000
1621215152.593,-34.668,-31.250,-31.250,-28.809,0.000
1621215152.597,-19.043,-29.297,-39.551,-22.949,0.000
1621215152.600,-7.324,-31.738,-42.480,-21.973,0.000
1621215152.604,-20.020,-31.250,-36.621,-15.625,0.000
1621215152.608,-23.438,-30.762,-43.457,-13.184,0.000
1621215152.612,-13.672,-33.203,-41.016,-11.230,0.000
1621215152.616,-15.625,-35.156,-39.062,-11.719,0.000
1621215152.620,-15.625,-37.109,-38.574,-7.812,0.000
1621215152.624,-15.137,-40.527,-27.344,-2.441,0.000
1621215152.628,-18.066,-41.504,-27.344,-9.277,0.000
1621215152.632,-19.531,-43.457,-30.273,-9.277,0.000
1621215152.636,-19.043,-36.621,-39.062,-11.719,0.000
1621215152.639,-9.766,-32.715,-40.527,-16.602,0.000
1621215152.643,-6.348,-34.668,-31.250,-15.625,0.000
1621215152.647,-15.625,-34.180,-38.086,-21.973,0.000
1621215152.651,-16.602,-27.344,-43.945,-19.043,0.000
1621215152.655,-18.555,-22.461,-41.016,-17.578,0.000
1621215152.659,-22.461,-28.809,-46.875,-20.508,0.000
1621215152.663,-29.297,-36.621,-54.199,-24.414,0.000
1621215152.667,-38.574,-34.180,-49.805,-31.738,0.000
1621215152.671,-27.832,-33.691,-44.434,-30.273,0.000
1621215152.675,-25.391,-34.668,-44.922,-17.090,0.000
1621215152.679,-19.043,-35.645,-41.016,-15.137,0.000
1621215152.682,-17.578,-35.645,-43.457,-19.531,0.000
1621215152.686,-16.113,-33.691,-39.551,-12.207,0.000
1621215152.690,-9.277,-31.250,-37.598,-13.184,0.000
1621215152.694,-7.324,-30.762,-40.039,-9.766,0.000
1621215152.698,-3.906,-32.227,-32.227,-7.324,0.000
1621215152.702,-3.906,-33.203,-35.156,-13.184,0.000
1621215152.706,-9.766,-32.715,-41.504,-7.812,0.000
1621215152.710,-8.301,-33.203,-37.109,-8.789,0.000
1621215152.714,-11.230,-29.297,-39.551,-13.672,0.000
1621215152.718,-19.531,-26.367,-43.457,-20.996,0.000
1621215152.722,-28.320,-32.227,-46.387,-26.855,0.000
1621215152.725,-30.273,-31.250,-43.945,-28.320,0.000
1621215152.729,-25.879,-31.250,-48.828,-28.809,0.000
1621215152.733,-20.020,-30.762,-52.734,-27.832,0.000
1621215152.737,-14.160,-20.508,-41.992,-18.555,0.000
1621215152.741,-19.043,-28.320,-44.922,-12.695,0.000
1621215152.745,-22.461,-35.156,-63.477,-28.320,0.000
1621215152.749,-34.668,-23.438,-60.547,-47.363,0.000
1621215152.753,-28.320,-22.461,-53.223,-39.551,0.000
1621215152.757,-17.090,-24.902,-50.293,-28.809,0.000
1621215152.761,-26.367,-26.367,-49.316,-31.738,0.000
1621215152.765,-25.879,-28.809,-54.199,-25.391,0.000
1621215152.768,-31.250,-28.809,-49.316,-15.625,0.000
1621215152.772,-31.738,-26.855,-39.551,-25.391,0.000
1621215152.776,-30.273,-28.809,-36.133,-26.855,0.000
1621215152.780,-31.250,-31.250,-35.645,-18.555,0.000
1621215152.784,-34.180,-33.691,-39.062,-19.043,0.000
1621215152.788,-31.250,-35.645,-42.480,-26.855,0.000
1621215152.792,-25.879,-34.668,-41.992,-23.438,0.000
1621215152.796,-21.484,-33.203,-43.457,-24.902,0.000
1621215152.800,-33.203,-36.621,-31.738,-27.344,0.000
1621215152.804,-35.156,-41.016,-27.832,-22.949,0.000
1621215152.807,-20.508,-40.527,-37.598,-16.113,0.000
1621215152.811,-18.555,-33.691,-36.621,-16.602,0.000
1621215152.815,-20.020,-34.668,-38.086,-26.855,0.000
1621215152.819,-26.367,-38.574,-41.992,-30.762,0.000
1621215152.823,-27.832,-33.691,-37.109,-26.367,0.000
1621215152.827,-36.133,-30.762,-34.180,-25.879,0.000
1621215152.831,-24.902,-28.809,-35.156,-36.133,0.000
1621215152.835,-20.996,-26.367,-35.156,-36.621,0.000
1621215152.839,-33.691,-28.809,-38.574,-21.484,0.000
1621215152.843,-35.156,-30.273,-44.922,-21.484,0.000
1621215152.847,-35.156,-32.227,-41.992,-35.156,0.000
1621215152.850,-41.016,-35.645,-40.527,-39.062,0.000
1621215152.854,-39.062,-35.645,-41.504,-35.156,0.000
1621215152.858,-31.738,-34.180,-41.504,-37.109,0.000
1621215152.862,-38.086,-36.133,-52.246,-33.203,0.000
1621215152.866,-37.109,-34.668,-55.176,-28.809,0.000
1621215152.870,-36.133,-36.621,-41.992,-35.156,0.000
1621215152.874,-41.016,-39.551,-37.598,-37.598,0.000
1621215152.878,-36.621,-36.621,-48.340,-41.504,0.000
1621215152.882,-36.133,-34.180,-50.781,-42.969,0.000
1621215152.886,-51.270,-36.621,-42.480,-37.109,0.000
1621215152.889,-37.598,-38.574,-46.875,-26.367,0.000
1621215152.893,-24.414,-38.574,-49.316,-20.996,0.000
1621215152.897,-35.156,-35.645,-45.898,-22.461,0.000
1621215152.901,-29.785,-37.109,-45.898,-23.438,0.000
1621215152.905,-15.137,-36.621,-44.922,-20.996,0.000
1621215152.909,-13.184,-39.551,-45.898,-15.625,0.000
1621215152.913,-15.625,-41.504,-49.316,-18.555,0.000
1621215152.917,-24.414,-38.574,-50.781,-30.762,0.000
1621215152.921,-24.902,-37.109,-49.316,-30.762,0.000
1621215152.925,-22.461,-35.645,-43.945,-21.973,0.000
1621215152.929,-32.227,-37.598,-48.340,-17.090,0.000
1621215152.932,-21.973,-37.598,-51.758,-25.879,0.000
1621215152.936,-17.578,-33.691,-42.480,-23.438,0.000
1621215152.940,-13.184,-34.180,-37.598,-20.996,0.000
1621215152.944,-12.207,-32.715,-39.551,-27.344,0.000
1621215152.948,-15.625,-28.809,-43.945,-16.113,0.000
1621215152.952,-5.859,-28.809,-41.016,-12.207,0.000
1621215152.956,-20.508,-34.668,-34.668,-26.367,0.000
1621215152.960,-30.762,-35.645,-37.598,-29.297,0.000
1621215152.964,-25.879,-29.297,-41.016,-28.320,0.000
1621215152.968,-33.203,-29.297,-41.504,-30.273,0.000
1621215152.972,-44.434,-30.762,-41.992,-25.391,0.000
1621215152.975,-47.363,-30.273,-41.992,-31.250,0.000
1621215152.979,-39.062,-32.715,-39.062,-38.086,0.000
1621215152.983,-41.504,-33.203,-35.156,-38.086,0.000
1621215152.987,-36.133,-32.227,-38.574,-41.016,0.000
1621215152.991,-31.738,-33.203,-43.945,-35.645,0.000
1621215152.995,-38.086,-37.109,-44.922,-36.133,0.000
1621215152.999,-35.156,-34.668,-40.039,-34.668,0.000
1621215153.003,-29.785,-32.227,-36.621,-30.273,0.000
1621215153.007,-30.762,-33.203,-40.527,-25.879,0.000
1621215153.011,-54.199,-32.227,-45.898,-27.832,0.000
1621215153.014,-46.387,-40.039,-49.805,-35.156,0.000
1621215153.018,-28.320,-46.387,-46.387,-41.504,0.000
1621215153.022,-21.484,-38.574,-40.039,-33.691,0.000
1621215153.026,-21.973,-31.738,-40.039,-19.043,0.000
1621215153.030,-31.250,-35.156,-44.434,-29.297,0.000
1621215153.034,-29.785,-32.715,-41.992,-32.227,0.000
1621215153.038,-29.297,-28.809,-40.527,-28.320,0.000
1621215153.042,-34.668,-28.809,-40.527,-29.785,0.000
1621215153.046,-23.438,-29.785,-36.621,-32.227,0.000
1621215153.050,-16.113,-31.738,-41.992,-35.645,0.000
1621215153.054,-20.996,-36.133,-42.969,-27.344,0.000
1621215153.057,-8.789,-30.762,-35.156,-13.184,0.000
1621215153.061,-10.742,-29.297,-41.016,-9.766,0.000
1621215153.065,-7.812,-32.227,-44.434,-13.184,0.000
1621215153.069,-2.930,-31.250,-44.434,-14.160,0.000
1621215153.073,-15.137,-29.785,-41.992,-15.625,0.000
1621215153.077,-0.488,-27.832,-48.340,-17.578,0.000
1621215153.081,11.230,-29.785,-54.688,-7.812,0.000
1621215153.085,-1.953,-30.273,-51.758,-5.859,0.000
1621215153.089,-7.324,-31.738,-51.270,-9.766,0.000
1621215153.093,-6.836,-36.621,-51.270,-17.578,0.000
1621215153.097,-11.230,-36.621,-46.875,-27.344,0.000
1621215153.100,-10.742,-36.621,-46.387,-25.391,0.000
1621215153.104,-18.066,-41.504,-52.246,-17.578,0.000
1621215153.108,-24.414,-41.504,-55.664,-25.391,0.000
1621215153.112,-13.184,-34.668,-49.316,-32.715,0.000
1621215153.116,-5.859,-30.273,-37.109,-19.531,0.000
1621215153.120,-15.625,-31.738,-37.109,-18.555,0.000
1621215153.124,-24.414,-32.227,-38.086,-26.367,0.000
1621215153.128,-26.367,-34.180,-53.223,-26.855,0.000
1621215153.132,-27.832,-36.133,-68.848,-30.762,0.000
1621215153.136,-29.785,-37.598,-60.059,-36.621,0.000
1621215153.140,-36.133,-31.738,-47.852,-26.855,0.000
1621215153.143,-20.996,-27.344,-44.922,-24.414,0.000
1621215153.147,-25.391,-34.180,-46.875,-37.598,0.000
1621215153.151,-51.758,-38.574,-41.992,-47.852,0.000
1621215153.155,-55.176,-32.715,-36.133,-43.457,0.000
1621215153.159,-59.082,-36.621,-33.203,-46.387,0.000
1621215153.163,-62.988,-40.527,-34.180,-66.406,0.000
1621215153.167,-74.219,-38.574,-41.504,-76.660,0.000
1621215153.171,-82.520,-36.621,-41.992,-76.660,0.000
1621215153.175,-81.055,-38.086,-26.855,-71.777,0.000
1621215153.179,-88.867,-44.922,-37.109,-83.984,0.000
1621215153.182,-95.215,-48.340,-58.105,-100.586,0.000
1621215153.186,-100.586,-49.805,-51.758,-103.516,0.000
1621215153.190,-93.750,-51.270,-43.457,-102.539,0.000
1621215153.194,-87.891,-52.734,-41.016,-99.609,0.000
1621215153.198,-96.191,-54.688,-44.922,-98.633,0.000
1621215153.202,-92.285,-50.781,-39.551,-88.867,0.000
1621215153.206,-76.172,-45.410,-37.109,-69.824,0.000
1621215153.210,-68.359,-43.945,-39.062,-62.012,0.000
1621215153.214,-64.941,-43.457,-39.551,-53.223,0.000
1621215153.218,-57.617,-44.434,-29.785,-39.062,0.000
1621215153.222,-35.645,-40.039,-29.785,-26.367,0.000
1621215153.225,-20.996,-38.574,-49.316,-22.949,0.000
1621215153.229,-31.250,-39.062,-49.805,-22.949,0.000
1621215153.233,-37.598,-34.180,-48.828,-17.578,0.000
1621215153.237,-31.250,-34.668,-47.363,-22.949,0.000
1621215153.241,-20.020,-37.109,-43.457,-14.648,0.000
1621215153.245,-15.625,-35.156,-44.922,-7.324,0.000
1621215153.249,-12.207,-33.691,-48.340,-11.719,0.000
1621215153.253,-7.812,-26.855,-49.316,-5.859,0.000
1621215153.257,-12.695,-23.926,-42.969,-6.348,0.000
1621215153.261,-7.812,-33.691,-41.992,-6.836,0.000
1621215153.264,-5.859,-35.156,-41.504,0.977,0.000
1621215153.268,-12.695,-30.273,-32.715,-8.301,0.000
1621215153.272,-15.625,-33.691,-38.574,-9.766,0.000
1621215153.276,-21.973,-35.156,-47.363,-10.742,0.000
1621215153.280,-12.695,-33.691,-45.410,-18.066,0.000
1621215153.284,-7.324,-30.273,-46.387,-13.184,0.000
1621215153.288,-20.996,-23.438,-49.316,-9.277,0.000
1621215153.292,-16.113,-22.461,-55.664,-9.277,0.000
1621215153.296,-19.043,-21.484,-51.270,-12.695,0.000
1621215153.300,-21.484,-14.160,-32.715,-25.879,0.000
1621215153.304,-16.602,-14.160,-31.250,-21.973,0.000
1621215153.307,-23.926,-21.973,-41.504,-14.648,0.000
1621215153.311,-31.250,-28.809,-38.574,-18.066,0.000
1621215153.315,-11.719,-28.809,-42.969,-25.879,0.000
1621215153.319,-10.742,-30.273,-49.805,-24.902,0.000
1621215153.323,-16.113,-30.762,-41.504,-15.625,0.000
1621215153.327,-11.719,-29.297,-39.062,-15.625,0.000
1621215153.331,-14.648,-29.297,-37.598,-30.273,0.000
1621215153.335,-22.949,-32.227,-41.992,-36.621,0.000
1621215153.339,-22.949,-30.273,-44.922,-18.555,0.000
1621215153.343,-12.695,-26.367,-28.809,-8.789,0.000
1621215153.347,-17.090,-27.344,-35.645,-23.926,0.000
1621215153.350,-20.996,-24.902,-51.758,-25.391,0.000
1621215153.354,-14.160,-24.414,-50.293,-22.949,0.000
1621215153.358,-24.902,-28.320,-52.246,-39.551,0.000
1621215153.362,-34.668,-34.180,-54.199,-52.246,0.000
1621215153.366,-32.227,-37.598,-45.898,-48.828,0.000
1621215153.370,-33.203,-36.133,-41.016,-47.852,0.000
1621215153.374,-41.016,-34.180,-41.504,-45.898,0.000
1621215153.378,-49.316,-36.621,-44.922,-45.410,0.000
1621215153.382,-39.062,-38.574,-41.992,-43.945,0.000
1621215153.386,-36.133,-30.762,-38.086,-43.945,0.000
1621215153.389,-49.805,-31.250,-41.992,-40.527,0.000
1621215153.393,-57.129,-36.621,-43.457,-34.668,0.000
1621215153.397,-48.340,-36.621,-38.574,-39.551,0.000
1621215153.401,-47.363,-36.621,-40.039,-41.016,0.000
1621215153.405,-41.992,-37.109,-49.316,-41.504,0.000
1621215153.409,-29.297,-33.691,-47.363,-38.086,0.000
1621215153.413,-33.203,-34.180,-53.223,-30.762,0.000
1621215153.417,-45.410,-36.621,-59.570,-36.621,0.000
1621215153.421,-39.062,-37.109,-53.711,-42.969,0.000
1621215153.425,-27.832,-32.227,-45.898,-41.992,0.000
1621215153.429,-60.059,-38.574,-44.434,-47.363,0.000
1621215153.432,-50.781,-36.133,-42.480,-46.387,0.000
1621215153.436,-38.574,-30.762,-39.551,-33.203,0.000
1621215153.440,-40.527,-28.320,-40.527,-32.715,0.000
1621215153.444,-25.879,-25.879,-41.504,-37.109,0.000
1621215153.448,-28.809,-30.762,-45.410,-41.016,0.000
1621215153.452,-34.668,-37.109,-51.758,-40.039,0.000
1621215153.456,-44.434,-39.062,-54.688,-37.598,0.000
1621215153.460,-42.480,-36.133,-53.711,-46.387,0.000
1621215153.464,-41.504,-40.039,-51.758,-48.828,0.000
1621215153.468,-37.109,-42.969,-47.852,-39.551,0.000
1621215153.472,-32.715,-38.574,-36.133,-28.809,0.000
1621215153.475,-38.574,-35.645,-33.691,-24.902,0.000
1621215153.479,-34.180,-33.691,-43.457,-36.133,0.000
1621215153.483,-30.273,-32.715,-43.945,-38.086,0.000
1621215153.487,-30.762,-30.762,-41.504,-32.715,0.000
1621215153.491,-29.785,-30.273,-38.574,-32.227,0.000
1621215153.495,-32.227,-32.715,-42.480,-40.527,0.000
1621215153.499,-34.180,-36.621,-45.898,-38.574,0.000
1621215153.503,-37.598,-36.133,-39.551,-30.273,0.000
1621215153.507,-39.551,-36.133,-39.551,-32.227,0.000
1621215153.511,-36.621,-35.156,-44.922,-38.574,0.000
1621215153.515,-38.574,-32.715,-46.387,-37.598,0.000
1621215153.518,-40.527,-33.203,-44.922,-33.691,0.000
1621215153.522,-22.949,-32.715,-40.527,-27.832,0.000
1621215153.526,-23.438,-32.715,-33.203,-23.438,0.000
1621215153.530,-30.273,-29.297,-32.715,-28.320,0.000
1621215153.534,-19.043,-27.832,-40.527,-22.949,0.000
1621215153.538,-32.227,-30.762,-45.898,-21.973,0.000
1621215153.542,-47.363,-28.809,-44.922,-22.461,0.000
1621215153.546,-21.484,-28.320,-41.992,-20.996,0.000
1621215153.550,-13.672,-30.273,-35.156,-25.879,0.000
1621215153.554,-24.414,-28.809,-45.410,-24.414,0.000
1621215153.557,-20.996,-31.250,-51.758,-21.484,0.000
1621215153.561,-20.020,-34.180,-43.457,-28.809,0.000
1621215153.565,-37.598,-39.062,-46.875,-35.645,0.000
1621215153.569,-45.898,-41.016,-48.340,-37.109,0.000
1621215153.573,-37.598,-33.203,-48.828,-37.598,0.000
1621215153.577,-39.551,-37.598,-52.246,-40.039,0.000
1621215153.581,-40.527,-42.969,-49.316,-34.668,0.000
1621215153.585,-34.180,-32.227,-51.758,-35.645,0.000
1621215153.589,-53.711,-29.297,-51.270,-45.410,0.000
1621215153.593,-53.711,-35.645,-52.246,-49.316,0.000
1621215153.597,-35.645,-33.691,-59.082,-48.340,0.000
1621215153.600,-29.785,-30.762,-58.594,-41.504,0.000
1621215153.604,-29.297,-32.715,-56.152,-35.156,0.000
1621215153.608,-28.809,-34.180,-52.246,-32.227,0.000
1621215153.612,-22.949,-34.180,-43.457,-28.809,0.000
1621215153.616,-15.625,-32.227,-45.898,-23.438,0.000
1621215153.620,-20.508,-36.133,-56.641,-22.949,0.000
1621215153.624,-31.250,-38.086,-54.688,-23.926,0.000
1621215153.628,-29.297,-34.180,-46.387,-11.719,0.000
1621215153.632,-25.391,-32.227,-42.480,-9.766,0.000
1621215153.636,-23.438,-28.809,-50.293,-21.973,0.000
1621215153.639,-20.508,-28.809,-56.641,-13.184,0.000
1621215153.643,-20.996,-25.879,-53.711,-13.184,0.000
1621215153.647,-22.949,-22.461,-45.410,-25.879,0.000
1621215153.651,-21.484,-23.438,-44.434,-25.879,0.000
1621215153.655,-13.184,-20.996,-47.363,-21.973,0.000
1621215153.659,-6.836,-22.461,-49.805,-23.926,0.000
1621215153.663,-4.883,-23.926,-42.969,-17.090,0.000
1621215153.667,-2.441,-20.020,-41.504,-21.484,0.000
1621215153.671,-8.789,-20.996,-52.734,-25.391,0.000
1621215153.675,-11.719,-23.926,-45.898,-20.996,0.000
1621215153.679,-18.066,-20.508,-48.340,-20.996,0.000
1621215153.682,-24.902,-18.555,-60.059,-19.043,0.000
1621215153.686,-25.391,-23.926,-56.152,-14.160,0.000
1621215153.690,-26.367,-28.320,-56.641,-25.391,0.000
1621215153.694,-19.043,-28.320,-57.617,-38.574,0.000
1621215153.698,-28.320,-30.273,-56.152,-44.922,0.000
1621215153.702,-32.227,-33.203,-56.641,-36.621,0.000
1621215153.706,-32.227,-36.133,-56.152,-37.598,0.000
1621215153.710,-34.180,-33.203,-52.734,-40.527,0.000
1621215153.714,-29.785,-27.832,-46.875,-37.598,0.000
1621215153.718,-28.809,-28.320,-46.387,-40.039,0.000
1621215153.722,-37.109,-27.832,-43.945,-33.203,0.000
1621215153.725,-41.016,-26.855,-40.039,-29.785,0.000
1621215153.729,-22.461,-34.180,-51.270,-40.527,0.000
1621215153.733,-20.996,-34.180,-46.387,-44.434,0.000
1621215153.737,-28.809,-31.738,-40.527,-43.457,0.000
1621215153.741,-32.715,-35.645,-48.828,-37.109,0.000
1621215153.745,-25.391,-37.598,-44.434,-24.902,0.000
1621215153.749,-9.766,-36.621,-45.898,-27.344,0.000
1621215153.753,-17.578,-33.691,-51.758,-33.203,0.000
1621215153.757,-27.832,-34.180,-44.922,-34.668,0.000
1621215153.761,-23.438,-33.691,-34.668,-29.785,0.000
1621215153.764,-24.414,-37.598,-47.852,-26.367,0.000
1621215153.768,-18.555,-42.480,-56.152,-29.297,0.000
1621215153.772,-18.555,-37.598,-42.480,-26.367,0.000
1621215153.776,-22.461,-37.598,-39.062,-19.531,0.000
1621215153.780,-20.020,-39.551,-44.922,-27.344,0.000
1621215153.784,-12.695,-37.109,-43.457,-30.273,0.000
1621215153.788,-18.066,-31.738,-34.180,-16.113,0.000
1621215153.792,-30.762,-33.691,-36.621,-14.648,0.000
1621215153.796,-10.742,-32.715,-51.270,-22.461,0.000
1621215153.800,-6.836,-29.785,-47.852,-18.066,0.000
1621215153.804,-14.160,-28.320,-36.621,-6.836,0.000
1621215153.807,-14.160,-28.320,-34.668,2.441,0.000
1621215153.811,-6.836,-32.227,-31.738,-1.465,0.000
1621215153.815,-0.977,-28.809,-25.879,-12.207,0.000
1621215153.819,-7.324,-29.297,-32.715,-9.766,0.000
1621215153.823,-18.555,-32.227,-35.645,-13.672,0.000
1621215153.827,-13.672,-25.391,-30.273,-18.066,0.000
1621215153.831,-9.277,-23.926,-38.086,-18.555,0.000
1621215153.835,-20.508,-32.227,-51.270,-24.414,0.000
1621215153.839,-21.484,-31.738,-49.805,-28.809,0.000
1621215153.843,-27.832,-25.391,-40.527,-30.762,0.000
1621215153.847,-25.391,-20.508,-41.992,-38.086,0.000
1621215153.850,-19.043,-18.555,-41.016,-37.109,0.000
1621215153.854,-35.645,-29.785,-35.645,-30.762,0.000
1621215153.858,-37.598,-36.133,-34.668,-41.016,0.000
1621215153.862,-42.480,-32.227,-35.156,-51.758,0.000
1621215153.866,-55.176,-31.250,-28.809,-53.223,0.000
1621215153.870,-76.172,-39.551,-27.832,-70.801,0.000
1621215153.874,-97.168,-38.086,-24.902,-81.543,0.000
1621215153.878,-116.211,-41.016,-27.344,-97.656,0.000
1621215153.882,-135.742,-46.875,-25.391,-121.582,0.000
1621215153.886,-155.273,-48.340,-14.160,-132.812,0.000
1621215153.890,-163.574,-51.758,-11.230,-137.695,0.000
1621215153.893,-166.016,-48.828,-12.207,-137.695,0.000
1621215153.897,-172.852,-46.387,-19.531,-153.320,0.000
1621215153.901,-179.688,-42.969,-28.809,-151.367,0.000
1621215153.905,-178.711,-37.109,-25.391,-136.230,0.000
1621215153.909,-179.199,-41.016,-24.414,-153.809,0.000
1621215153.913,-180.664,-45.410,-21.973,-168.457,0.000
1621215153.917,-177.246,-46.875,-17.578,-170.410,0.000
1621215153.921,-158.203,-42.969,-22.461,-171.875,0.000
1621215153.925,-143.066,-41.504,-28.320,-166.992,0.000
1621215153.929,-150.879,-42.969,-32.227,-172.363,0.000
1621215153.932,-135.742,-36.133,-31.738,-156.250,0.000
1621215153.936,-111.328,-33.691,-25.391,-122.070,0.000
1621215153.940,-101.562,-34.180,-24.414,-99.121,0.000
1621215153.944,-89.355,-31.250,-36.133,-90.820,0.000
1621215153.948,-60.059,-34.668,-47.363,-83.496,0.000
1621215153.952,-53.711,-39.062,-43.945,-56.641,0.000
1621215153.956,-53.223,-34.180,-36.621,-25.391,0.000
1621215153.960,-41.504,-31.250,-36.133,-17.578,0.000
1621215153.964,-33.203,-34.180,-35.156,-20.996,0.000
1621215153.968,-22.949,-38.574,-45.898,-6.348,0.000
1621215153.972,-10.254,-34.668,-51.270,10.742,0.000
1621215153.975,-5.859,-33.691,-36.133,11.719,0.000
1621215153.979,1.953,-36.133,-36.133,10.742,0.000
1621215153.983,13.184,-34.180,-45.410,17.578,0.000
1621215153.987,23.438,-34.668,-57.617,21.973,0.000
1621215153.991,23.926,-33.691,-64.941,21.484,0.000
1621215153.995,21.973,-37.598,-50.781,25.391,0.000
1621215153.999,28.320,-42.480,-43.457,20.508,0.000
1621215154.003,31.250,-41.504,-44.434,23.926,0.000
1621215154.007,28.320,-37.598,-43.945,30.762,0.000
1621215154.011,27.832,-41.504,-43.457,27.344,0.000
1621215154.014,27.344,-42.969,-47.852,18.066,0.000
1621215154.018,29.785,-34.668,-54.688,16.113,0.000
1621215154.022,35.156,-34.180,-54.688,25.391,0.000
1621215154.026,35.645,-36.621,-42.480,27.344,0.000
1621215154.030,33.203,-39.062,-39.062,20.996,0.000
1621215154.034,33.203,-39.551,-50.781,23.438,0.000
1621215154.038,18.066,-37.109,-45.410,24.902,0.000
1621215154.042,14.648,-37.598,-41.504,28.809,0.000
1621215154.046,27.344,-39.062,-43.945,21.484,0.000
1621215154.050,26.367,-36.621,-43.457,13.184,0.000
1621215154.054,20.996,-35.156,-42.969,11.719,0.000
1621215154.057,11.230,-35.645,-41.016,8.301,0.000
1621215154.061,4.883,-29.785,-41.016,0.000,0.000
1621215154.065,-2.441,-28.809,-40.527,-6.836,0.000
1621215154.069,-10.742,-34.180,-40.527,-4.395,0.000
1621215154.073,-13.672,-34.180,-39.062,-3.906,0.000
1621215154.077,-20.508,-33.691,-36.621,-11.230,0.000
1621215154.081,-38.086,-31.250,-34.668,-34.668,0.000
1621215154.085,-62.500,-33.203,-30.273,-54.688,0.000
1621215154.089,-74.219,-39.062,-30.762,-72.754,0.000
1621215154.093,-92.285,-39.551,-22.461,-77.148,0.000
1621215154.097,-117.676,-40.527,-19.043,-101.562,0.000
1621215154.100,-140.625,-41.016,-31.738,-143.555,0.000
1621215154.104,-156.250,-37.109,-34.668,-155.273,0.000
1621215154.108,-157.715,-32.227,-29.785,-163.086,0.000
1621215154.112,-165.527,-34.180,-24.902,-167.480,0.000
1621215154.116,-171.387,-35.156,-40.039,-172.363,0.000
1621215154.120,-177.246,-33.203,-42.480,-164.062,0.000
1621215154.124,-176.270,-38.086,-30.273,-160.645,0.000
1621215154.128,-147.949,-38.574,-33.203,-166.016,0.000
1621215154.132,-136.719,-34.668,-35.156,-164.062,0.000
1621215154.136,-139.648,-38.574,-42.969,-146.973,0.000
1621215154.140,-123.047,-37.109,-49.805,-120.605,0.000
1621215154.143,-101.074,-33.203,-45.898,-105.957,0.000
1621215154.147,-90.332,-30.273,-65.918,-97.168,0.000
1621215154.151,-80.566,-24.902,-70.801,-81.543,0.000
1621215154.155,-68.359,-29.785,-49.316,-77.637,0.000
1621215154.159,-59.082,-37.109,-52.246,-64.453,0.000
1621215154.163,-38.574,-33.203,-34.668,-37.598,0.000
1621215154.167,-24.902,-30.273,-32.227,-26.367,0.000
1621215154.171,-24.414,-32.715,-40.527,-24.414,0.000
1621215154.175,-20.508,-34.180,-41.504,-15.625,0.000
1621215154.179,-6.836,-36.621,-45.410,-7.812,0.000
1621215154.182,-1.465,-38.574,-41.992,-12.207,0.000
1621215154.186,5.371,-35.156,-47.852,-2.930,0.000
1621215154.190,13.184,-35.645,-50.293,11.719,0.000
1621215154.194,18.555,-38.086,-53.223,24.414,0.000
1621215154.198,29.297,-36.621,-54.199,29.785,0.000
1621215154.202,33.691,-34.668,-53.223,22.949,0.000
1621215154.206,35.645,-31.250,-52.246,36.621,0.000
1621215154.210,40.039,-31.250,-52.734,46.387,0.000
1621215154.214,47.363,-31.250,-51.270,37.109,0.000
1621215154.218,44.922,-30.762,-54.199,33.203,0.000
1621215154.222,36.621,-32.715,-62.500,39.062,0.000
1621215154.225,28.320,-35.156,-60.547,37.109,0.000
1621215154.229,28.320,-36.621,-49.805,31.250,0.000
1621215154.233,37.109,-34.668,-48.828,36.133,0.000
1621215154.237,49.316,-35.645,-57.617,41.992,0.000
1621215154.241,53.223,-35.156,-49.316,41.504,0.000
1621215154.245,41.016,-28.809,-47.363,33.691,0.000
1621215154.249,32.715,-29.785,-51.758,30.762,0.000
1621215154.253,36.133,-29.297,-55.176,34.668,0.000
1621215154.257,34.668,-28.320,-50.293,28.320,0.000
1621215154.261,25.879,-29.297,-46.387,25.391,0.000
1621215154.265,32.227,-30.273,-47.363,32.715,0.000
1621215154.268,41.016,-26.855,-49.805,37.598,0.000
1621215154.272,30.762,-28.809,-58.594,38.086,0.000
1621215154.276,28.809,-31.250,-52.734,33.203,0.000
1621215154.280,32.227,-30.273,-41.016,26.367,0.000
1621215154.284,30.762,-32.227,-33.691,27.344,0.000
1621215154.288,36.133,-29.785,-30.762,28.809,0.000
1621215154.292,32.715,-27.344,-46.387,19.531,0.000
1621215154.296,32.715,-24.902,-57.617,13.184,0.000
1621215154.300,42.480,-23.926,-46.875,22.461,0.000
1621215154.304,27.344,-24.902,-45.898,22.461,0.000
1621215154.307,28.809,-22.949,-55.176,17.090,0.000
1621215154.311,41.016,-20.996,-58.594,17.090,0.000
1621215154.315,24.902,-29.297,-52.246,0.488,0.000
1621215154.319,15.137,-31.738,-38.574,7.324,0.000
1621215154.323,14.160,-34.180,-23.438,14.160,0.000
1621215154.327,13.672,-39.062,-33.691,9.277,0.000
1621215154.331,11.719,-33.203,-34.668,12.207,0.000
1621215154.335,13.672,-29.297,-24.902,11.719,0.000
1621215154.339,20.996,-33.691,-23.438,10.254,0.000
1621215154.343,17.090,-30.762,-18.555,20.996,0.000
1621215154.347,10.254,-29.297,-21.973,21.973,0.000
1621215154.350,-0.977,-33.691,-35.156,6.348,0.000
1621215154.354,-0.977,-31.250,-36.133,6.836,0.000
1621215154.358,8.789,-29.785,-34.180,11.719,0.000
1621215154.362,9.766,-30.762,-35.156,3.906,0.000
1621215154.366,11.719,-31.250,-34.668,1.465,0.000
1621215154.370,13.672,-35.156,-40.527,7.324,0.000
1621215154.374,7.812,-41.016,-35.645,9.277,0.000
1621215154.378,-0.977,-42.969,-36.133,-0.977,0.000
1621215154.382,4.395,-41.504,-40.039,-4.883,0.000
1621215154.386,9.277,-41.992,-38.086,-6.348,0.000
1621215154.389,5.859,-46.387,-41.016,2.441,0.000
1621215154.393,-6.348,-46.875,-49.805,-2.930,0.000
1621215154.397,-13.672,-45.898,-46.875,-21.973,0.000
1621215154.401,-15.625,-42.969,-49.316,-30.273,0.000
1621215154.405,-12.207,-35.156,-43.945,-22.949,0.000
1621215154.409,-3.906,-29.785,-27.344,-15.625,0.000
1621215154.413,-3.906,-34.180,-32.227,-18.066,0.000
1621215154.417,-4.883,-40.039,-41.016,-16.113,0.000
1621215154.421,-12.695,-42.969,-33.691,-19.043,0.000
1621215154.425,-10.254,-39.551,-41.504,-18.555,0.000
1621215154.429,-10.742,-35.156,-51.758,-7.812,0.000
1621215154.432,-16.113,-37.109,-46.387,-6.836,0.000
1621215154.436,-8.789,-35.645,-39.062,-14.160,0.000
1621215154.440,-4.883,-28.320,-37.598,-6.836,0.000
1621215154.444,-5.371,-29.297,-43.457,0.977,0.000
1621215154.448,-9.277,-31.738,-49.805,-4.883,0.000
1621215154.452,-4.883,-31.738,-47.852,-14.648,0.000
1621215154.456,1.465,-33.691,-39.551,-17.090,0.000
1621215154.460,-6.836,-35.645,-46.387,-13.184,0.000
1621215154.464,-6.836,-35.156,-49.316,-19.531,0.000
1621215154.468,-12.695,-39.062,-37.109,-22.949,0.000
1621215154.472,-19.531,-40.527,-30.273,-19.043,0.000
1621215154.475,-15.137,-41.504,-34.668,-20.508,0.000
1621215154.479,-15.137,-41.992,-41.992,-23.926,0.000
1621215154.483,-21.973,-39.062,-49.805,-29.297,0.000
1621215154.487,-21.484,-32.227,-47.852,-21.484,0.000
1621215154.491,-11.230,-35.156,-42.480,-17.090,0.000
1621215154.495,-12.207,-41.504,-40.039,-14.648,0.000
1621215154.499,-23.438,-38.574,-37.598,-25.391,0.000
1621215154.503,-34.180,-39.062,-45.410,-28.809,0.000
1621215154.507,-25.879,-41.504,-43.945,-14.648,0.000
1621215154.511,-13.672,-36.621,-39.062,-11.719,0.000
1621215154.515,-4.883,-32.715,-38.086,-14.648,0.000
1621215154.518,-3.906,-30.762,-28.809,-14.160,0.000
1621215154.522,-12.207,-33.203,-32.715,-11.230,0.000
1621215154.526,-17.578,-34.180,-47.363,-6.348,0.000
1621215154.530,-21.973,-30.762,-42.480,-18.066,0.000
1621215154.534,-25.879,-29.785,-37.598,-20.508,0.000
1621215154.538,-25.391,-26.367,-37.598,-18.555,0.000
1621215154.542,-21.973,-23.926,-34.180,-24.902,0.000
1621215154.546,-18.555,-25.879,-35.645,-20.996,0.000
1621215154.550,-13.672,-26.855,-35.645,-17.090,0.000
1621215154.554,-22.461,-28.320,-33.203,-12.695,0.000
1621215154.557,-9.277,-25.391,-36.133,-9.766,0.000
1621215154.561,-7.324,-25.391,-41.504,-28.320,0.000
1621215154.565,-20.996,-28.320,-43.945,-37.109,0.000
1621215154.569,-17.090,-22.949,-38.574,-15.137,0.000
1621215154.573,-22.949,-24.902,-39.062,-8.789,0.000
1621215154.577,-27.344,-25.879,-50.781,-28.320,0.000
1621215154.581,-23.438,-18.555,-56.152,-40.527,0.000
1621215154.585,-31.250,-17.578,-54.199,-39.551,0.000
1621215154.589,-41.992,-17.578,-62.500,-36.621,0.000
1621215154.593,-23.438,-14.160,-64.941,-30.273,0.000
1621215154.597,-16.602,-10.254,-57.617,-31.738,0.000
1621215154.600,-18.066,-10.742,-44.922,-28.809,0.000
1621215154.604,-21.484,-11.719,-47.852,-24.902,0.000
1621215154.608,-18.555,-12.695,-62.012,-13.672,0.000
1621215154.612,-7.324,-18.066,-59.082,-12.207,0.000
1621215154.616,-9.766,-22.461,-58.105,-15.625,0.000
1621215154.620,0.000,-17.578,-55.664,-11.230,0.000
1621215154.624,0.000,-14.160,-51.270,-27.832,0.000
1621215154.628,-1.953,-14.648,-49.316,-31.250,0.000
1621215154.632,13.184,-16.113,-53.223,-23.438,0.000
1621215154.636,0.000,-20.020,-47.852,-19.531,0.000
1621215154.640,-15.625,-23.926,-44.434,-9.277,0.000
1621215154.643,-22.949,-24.902,-51.758,-12.695,0.000
1621215154.647,-42.969,-26.367,-54.199,-6.836,0.000
1621215154.651,-10.742,-27.344,-53.711,-11.719,0.000
1621215154.655,23.438,-26.367,-60.059,-11.230,0.000
1621215154.659,12.695,-25.391,-56.641,-7.324,0.000
1621215154.663,-19.043,-26.367,-43.457,-12.695,0.000
1621215154.667,-17.578,-31.738,-33.203,-13.672,0.000
1621215154.671,-3.906,-34.668,-38.574,-7.812,0.000
1621215154.675,-9.766,-33.203,-44.434,-8.301,0.000
1621215154.679,-11.230,-30.273,-42.480,-28.809,0.000
1621215154.682,-16.113,-29.785,-43.457,-25.391,0.000
1621215154.686,-17.578,-26.855,-44.922,-12.695,0.000
1621215154.690,-19.531,-27.344,-43.945,-11.719,0.000
1621215154.694,-17.578,-26.855,-41.016,-20.996,0.000
1621215154.698,-19.043,-25.391,-46.387,-20.996,0.000
1621215154.702,-20.996,-26.855,-49.805,-23.926,0.000
1621215154.706,-20.020,-25.391,-34.668,-28.320,0.000
1621215154.710,-15.137,-25.391,-36.621,-16.113,0.000
1621215154.714,-18.066,-28.320,-52.734,-19.531,0.000
1621215154.718,-11.230,-27.344,-49.316,-17.578,0.000
1621215154.722,-4.395,-24.414,-45.410,-21.973,0.000
1621215154.725,-15.137,-19.531,-50.781,-19.531,0.000
1621215154.729,-11.719,-21.484,-47.852,-18.555,0.000
1621215154.733,-11.719,-25.879,-42.480,-14.648,0.000
1621215154.737,-14.160,-24.902,-39.062,-10.254,0.000
1621215154.741,-11.719,-30.762,-31.250,-25.391,0.000
1621215154.745,-22.461,-28.809,-31.738,-34.668,0.000
1621215154.749,-26.855,-27.832,-41.992,-25.391,0.000
1621215154.753,-23.438,-31.250,-43.457,-18.066,0.000
1621215154.757,-21.484,-29.297,-40.527,-16.602,0.000
1621215154.761,-26.855,-33.203,-41.016,-23.438,0.000
1621215154.764,-21.484,-36.133,-48.340,-20.020,0.000
1621215154.768,-17.578,-29.785,-49.316,-27.832,0.000
1621215154.772,-26.855,-25.391,-41.504,-32.227,0.000
1621215154.776,-27.344,-23.438,-39.062,-27.344,0.000
1621215154.780,-22.461,-26.367,-40.039,-36.133,0.000
1621215154.784,-20.996,-30.273,-42.480,-35.645,0.000
1621215154.788,-23.926,-23.926,-42.969,-29.785,0.000
1621215154.792,-23.926,-17.578,-38.574,-29.785,0.000
1621215154.796,-22.461,-19.043,-41.992,-28.809,0.000
1621215154.800,-19.531,-18.555,-49.316,-26.855,0.000
1621215154.804,-29.297,-24.414,-52.246,-39.551,0.000
1621215154.807,-26.855,-29.297,-52.734,-39.062,0.000
1621215154.811,-13.184,-29.297,-43.457,-29.785,0.000
1621215154.815,-24.414,-30.762,-35.156,-39.062,0.000
1621215154.819,-33.691,-36.621,-40.527,-42.480,0.000
1621215154.823,-26.367,-36.621,-42.969,-27.832,0.000
1621215154.827,-22.949,-29.785,-34.668,-28.320,0.000
1621215154.831,-23.926,-35.156,-31.738,-30.762,0.000
1621215154.835,-20.020,-38.086,-37.598,-20.508,0.000
1621215154.839,-19.531,-32.715,-36.133,-12.207,0.000
1621215154.843,-17.090,-32.715,-29.297,-21.973,0.000
1621215154.847,-15.137,-32.715,-25.879,-41.992,0.000
1621215154.850,-14.648,-34.180,-41.016,-37.109,0.000
1621215154.854,-16.113,-40.527,-54.688,-15.625,0.000
1621215154.858,-30.273,-40.527,-46.875,-22.461,0.000
1621215154.862,-47.363,-37.109,-46.387,-36.133,0.000
1621215154.866,-40.527,-35.645,-45.898,-35.645,0.000
1621215154.870,-30.273,-32.715,-39.551,-29.297,0.000
1621215154.874,-31.250,-40.527,-39.062,-29.297,0.000
1621215154.878,-22.461,-39.551,-43.945,-34.180,0.000
1621215154.882,-20.020,-33.691,-50.293,-37.598,0.000
1621215154.886,-26.367,-34.668,-44.922,-37.109,0.000
1621215154.889,-21.484,-36.621,-38.574,-35.645,0.000
1621215154.893,-24.902,-38.086,-44.922,-42.480,0.000
1621215154.897,-30.762,-39.062,-41.016,-45.898,0.000
1621215154.901,-32.227,-40.039,-41.504,-38.574,0.000
1621215154.905,-30.273,-38.574,-48.828,-33.691,0.000
1621215154.909,-26.367,-38.086,-47.363,-30.762,0.000
1621215154.913,-25.391,-34.180,-46.387,-42.480,0.000
1621215154.917,-31.250,-31.250,-41.504,-54.199,0.000
1621215154.921,-30.273,-36.133,-42.480,-46.875,0.000
1621215154.925,-24.902,-35.645,-44.434,-24.902,0.000
1621215154.929,-32.227,-37.109,-42.480,-24.414,0.000
1621215154.932,-24.414,-37.109,-38.574,-26.367,0.000
1621215154.936,-8.789,-34.180,-42.480,-17.578,0.000
1621215154.940,-11.230,-31.738,-51.270,-27.344,0.000
1621215154.944,-18.066,-28.320,-47.852,-24.414,0.000
1621215154.948,-26.367,-30.273,-45.898,-19.531,0.000
1621215154.952,-28.809,-27.344,-48.340,-33.203,0.000
1621215154.956,-25.391,-23.438,-50.781,-25.391,0.000
1621215154.960,-25.879,-28.320,-50.293,-22.461,0.000
1621215154.964,-40.039,-24.902,-39.551,-31.250,0.000
1621215154.968,-45.410,-22.461,-37.109,-35.645,0.000
1621215154.972,-27.832,-32.715,-41.016,-31.250,0.000
1621215154.975,-27.344,-41.016,-40.039,-28.809,0.000
1621215154.979,-30.762,-39.062,-40.527,-22.949,0.000
1621215154.983,-23.926,-34.180,-40.527,-24.902,0.000
1621215154.987,-24.902,-34.668,-46.387,-33.203,0.000
1621215154.991,-38.086,-34.668,-39.551,-21.973,0.000
1621215154.995,-33.203,-26.855,-32.715,-36.133,0.000
1621215154.999,-19.531,-25.391,-41.992,-49.316,0.000
1621215155.003,-19.531,-34.180,-47.363,-43.945,0.000
1621215155.007,-16.113,-31.250,-40.039,-41.504,0.000
1621215155.011,-20.996,-27.832,-34.668,-31.250,0.000
1621215155.015,-24.414,-31.250,-35.156,-32.715,0.000
1621215155.018,-18.555,-33.691,-39.062,-35.645,0.000
1621215155.022,-18.066,-28.320,-41.504,-23.438,0.000
1621215155.026,-18.555,-26.855,-35.645,-21.484,0.000
1621215155.030,-16.113,-28.320,-37.109,-28.320,0.000
1621215155.034,-29.297,-24.902,-30.762,-28.320,0.000
1621215155.038,-43.945,-27.344,-22.949,-20.996,0.000
1621215155.042,-30.273,-32.715,-32.227,-22.949,0.000
1621215155.046,-20.996,-32.715,-45.410,-22.461,0.000
1621215155.050,-37.109,-39.062,-44.922,-25.391,0.000
1621215155.054,-35.156,-39.551,-41.992,-24.414,0.000
1621215155.057,-30.762,-33.203,-39.062,-20.020,0.000
1621215155.061,-22.949,-29.785,-38.574,-21.484,0.000
1621215155.065,-10.254,-28.320,-55.176,-30.762,0.000
1621215155.069,-16.602,-27.832,-52.246,-32.715,0.000
1621215155.073,-16.602,-24.414,-42.480,-31.738,0.000
1621215155.077,-15.625,-24.902,-41.016,-42.969,0.000
1621215155.081,-17.090,-25.391,-33.691,-39.551,0.000
1621215155.085,-11.719,-25.879,-36.621,-26.367,0.000
1621215155.089,-17.578,-30.273,-47.852,-39.062,0.000
1621215155.093,-28.809,-33.203,-39.062,-39.551,0.000
1621215155.097,-36.133,-38.574,-35.645,-27.832,0.000
1621215155.100,-38.086,-42.969,-42.480,-38.086,0.000
1621215155.104,-36.133,-44.922,-41.016,-30.273,0.000
1621215155.108,-38.574,-45.410,-41.016,-11.719,0.000
1621215155.112,-39.062,-47.852,-44.922,-23.926,0.000
1621215155.116,-40.039,-49.316,-48.828,-30.273,0.000
1621215155.120,-56.152,-45.898,-40.527,-32.715,0.000
1621215155.124,-47.852,-40.527,-42.969,-37.109,0.000
1621215155.128,-33.691,-41.504,-50.781,-34.180,0.000
1621215155.132,-29.297,-48.340,-51.758,-34.180,0.000
1621215155.136,-30.762,-41.992,-45.410,-35.645,0.000
1621215155.140,-29.785,-37.598,-33.203,-25.391,0.000
1621215155.143,-19.043,-35.645,-29.785,-19.531,0.000
1621215155.147,-15.625,-32.227,-38.574,-20.996,0.000
1621215155.151,-18.066,-32.227,-44.922,-20.020,0.000
1621215155.155,-19.531,-29.785,-40.527,-18.066,0.000
1621215155.159,-12.695,-25.879,-36.621,-15.137,0.000
1621215155.163,-18.066,-28.320,-37.109,-25.391,0.000
1621215155.167,-24.902,-33.203,-36.133,-31.738,0.000
1621215155.171,-28.809,-34.668,-35.645,-31.738,0.000
1621215155.175,-35.156,-32.715,-36.133,-26.855,0.000
1621215155.179,-26.367,-28.320,-28.320,-18.555,0.000
1621215155.182,-17.090,-30.273,-25.879,-23.438,0.000
1621215155.186,-17.090,-37.109,-38.574,-19.531,0.000
1621215155.190,-18.555,-39.062,-40.039,-23.438,0.000
1621215155.194,-31.738,-37.109,-48.340,-24.414,0.000
1621215155.198,-26.855,-37.109,-52.734,-13.184,0.000
1621215155.202,-22.949,-38.574,-48.828,-28.809,0.000
1621215155.206,-21.484,-32.715,-55.664,-41.016,0.000
1621215155.210,-18.066,-29.297,-53.223,-24.414,0.000
1621215155.214,-26.367,-29.785,-49.805,-29.785,0.000
1621215155.218,-30.762,-28.320,-54.688,-43.945,0.000
1621215155.222,-31.250,-30.762,-52.246,-29.297,0.000
1621215155.225,-23.438,-33.203,-51.758,-20.996,0.000
1621215155.229,-31.738,-31.250,-44.922,-21.973,0.000
1621215155.233,-31.250,-27.832,-33.203,-27.344,0.000
1621215155.237,-15.137,-22.461,-39.551,-16.113,0.000
1621215155.241,-12.207,-25.391,-48.340,-14.160,0.000
1621215155.245,-10.742,-26.367,-46.875,-25.391,0.000
1621215155.249,-15.625,-24.902,-45.410,-23.438,0.000
1621215155.253,-30.273,-30.762,-44.434,-22.949,0.000
1621215155.257,-22.949,-31.738,-35.645,-19.043,0.000
1621215155.261,-17.090,-32.227,-35.156,-10.254,0.000
1621215155.265,-34.668,-33.691,-41.992,-27.832,0.000
1621215155.268,-31.738,-31.738,-41.992,-43.945,0.000
1621215155.272,-19.043,-28.809,-32.715,-32.227,0.000
1621215155.276,-26.855,-27.344,-26.855,-15.137,0.000
1621215155.280,-28.809,-28.809,-39.551,-31.738,0.000
1621215155.284,-26.367,-29.785,-50.293,-34.668,0.000
1621215155.288,-42.480,-31.738,-51.270,-25.391,0.000
1621215155.292,-53.711,-34.180,-49.316,-35.156,0.000
1621215155.296,-46.387,-31.250,-42.969,-37.109,0.000
1621215155.300,-37.109,-30.273,-45.410,-35.645,0.000
1621215155.304,-43.945,-30.273,-45.898,-46.875,0.000
1621215155.307,-39.062,-29.785,-54.199,-48.828,0.000
1621215155.311,-29.785,-29.785,-58.594,-45.410,0.000
1621215155.315,-34.180,-25.879,-50.781,-52.246,0.000
1621215155.319,-35.156,-26.367,-43.457,-42.480,0.000
1621215155.323,-36.621,-27.832,-42.480,-33.691,0.000
1621215155.327,-36.621,-24.414,-41.992,-28.320,0.000
1621215155.331,-26.855,-20.020,-38.574,-29.297,0.000
1621215155.335,-29.297,-22.461,-39.062,-26.855,0.000
1621215155.339,-29.297,-23.926,-40.527,-27.832,0.000
1621215155.343,-21.973,-21.973,-38.574,-29.297,0.000
1621215155.347,-30.762,-25.391,-38.574,-34.180,0.000
1621215155.350,-22.949,-26.855,-41.992,-30.762,0.000
1621215155.354,-15.137,-25.391,-49.316,-26.367,0.000
1621215155.358,-18.555,-31.250,-58.105,-40.527,0.000
1621215155.362,-24.902,-35.156,-53.711,-39.551,0.000
1621215155.366,-29.297,-33.203,-39.551,-29.297,0.000
1621215155.370,-20.020,-33.691,-41.992,-31.250,0.000
1621215155.374,-9.766,-33.203,-53.223,-26.367,0.000
1621215155.378,-18.066,-32.715,-49.316,-14.648,0.000
1621215155.382,-45.898,-34.180,-42.969,-14.160,0.000
1621215155.386,-39.551,-32.227,-43.457,-15.137,0.000
1621215155.390,-12.695,-28.809,-35.645,-0.488,0.000
1621215155.393,-11.230,-30.273,-29.297,-4.883,0.000
1621215155.397,-20.508,-33.691,-38.086,-31.250,0.000
1621215155.401,-26.367,-36.133,-44.922,-26.367,0.000
1621215155.405,-20.020,-34.668,-47.363,-20.508,0.000
1621215155.409,-19.043,-37.109,-46.387,-15.137,0.000
1621215155.413,-25.391,-39.551,-44.434,-14.160,0.000
1621215155.417,-23.926,-38.086,-46.387,-26.367,0.000
1621215155.421,-22.949,-36.621,-65.430,-27.344,0.000
1621215155.425,-22.461,-35.645,-66.406,-26.855,0.000
1621215155.429,-17.578,-33.691,-47.852,-35.156,0.000
1621215155.432,-20.996,-36.133,-43.945,-29.785,0.000
1621215155.436,-24.414,-41.992,-44.434,-33.691,0.000
1621215155.440,-25.391,-41.992,-40.039,-40.527,0.000
1621215155.444,-31.250,-36.133,-49.805,-38.086,0.000
1621215155.448,-37.598,-36.621,-57.617,-41.504,0.000
1621215155.452,-36.621,-36.621,-53.223,-33.203,0.000
1621215155.456,-35.156,-30.273,-49.316,-28.320,0.000
1621215155.460,-27.344,-26.367,-47.363,-33.203,0.000
1621215155.464,-24.414,-32.715,-47.363,-32.227,0.000
1621215155.468,-28.809,-36.621,-42.480,-36.133,0.000
1621215155.472,-26.855,-38.574,-45.898,-35.156,0.000
1621215155.475,-27.344,-38.086,-48.828,-29.785,0.000
1621215155.479,-34.668,-36.133,-36.621,-32.227,0.000
1621215155.483,-35.156,-39.551,-29.785,-34.180,0.000
1621215155.487,-28.809,-35.645,-36.133,-18.555,0.000
1621215155.491,-31.250,-31.250,-35.645,-18.555,0.000
1621215155.495,-36.133,-32.715,-30.762,-41.992,0.000
1621215155.499,-28.809,-35.156,-33.203,-41.504,0.000
1621215155.503,-26.367,-39.062,-39.062,-36.133,0.000
1621215155.507,-34.180,-43.945,-41.016,-38.086,0.000
1621215155.511,-37.109,-43.457,-36.621,-35.156,0.000
1621215155.515,-31.250,-39.062,-37.598,-24.902,0.000
1621215155.518,-24.414,-32.227,-37.109,-15.137,0.000
1621215155.522,-20.996,-29.297,-43.457,-21.484,0.000
1621215155.526,-16.602,-32.227,-47.852,-26.855,0.000
1621215155.530,-18.066,-33.691,-37.598,-26.367,0.000
1621215155.534,-24.414,-35.645,-35.645,-25.879,0.000
1621215155.538,-18.066,-34.668,-36.133,-17.578,0.000
1621215155.542,-23.926,-36.133,-27.832,-19.043,0.000
1621215155.546,-33.203,-39.062,-33.691,-24.902,0.000
1621215155.550,-27.344,-35.645,-42.480,-25.879,0.000
1621215155.554,-25.391,-30.762,-38.086,-28.320,0.000
1621215155.557,-30.762,-32.715,-39.551,-31.738,0.000
1621215155.561,-25.879,-32.715,-37.598,-30.762,0.000
1621215155.565,-26.367,-32.227,-33.203,-24.902,0.000
1621215155.569,-30.273,-31.738,-27.832,-23.438,0.000
1621215155.573,-22.949,-30.273,-27.344,-25.391,0.000
1621215155.577,-28.809,-28.809,-36.621,-14.160,0.000
1621215155.581,-34.180,-27.344,-37.598,-20.020,0.000
1621215155.585,-24.414,-24.414,-31.250,-26.855,0.000
1621215155.589,-19.043,-22.461,-30.273,-25.391,0.000
1621215155.593,-24.902,-27.344,-31.250,-23.438,0.000
1621215155.597,-25.879,-31.738,-33.203,-25.391,0.000
1621215155.600,-17.090,-25.391,-38.574,-24.902,0.000
1621215155.604,-13.184,-25.879,-42.480,-9.277,0.000
1621215155.608,-18.555,-34.180,-40.039,-28.320,0.000
1621215155.612,-21.973,-35.156,-32.227,-39.062,0.000
1621215155.616,-19.043,-31.250,-36.133,-19.043,0.000
1621215155.620,-15.625,-31.250,-41.504,-13.672,0.000
1621215155.624,-10.742,-32.227,-36.133,-18.555,0.000
1621215155.628,-13.672,-33.203,-33.691,-22.949,0.000
1621215155.632,-20.020,-33.691,-32.227,-24.902,0.000
1621215155.636,-22.949,-37.598,-37.598,-20.996,0.000
1621215155.640,-19.043,-36.621,-38.086,-18.555,0.000
1621215155.643,-17.578,-32.715,-30.273,-23.926,0.000
1621215155.647,-23.926,-31.738,-33.691,-33.691,0.000
1621215155.651,-29.297,-34.180,-40.039,-29.785,0.000
1621215155.655,-33.691,-35.156,-41.016,-31.738,0.000
1621215155.659,-28.809,-36.133,-45.898,-34.180,0.000
1621215155.663,-28.809,-42.480,-45.898,-33.691,0.000
1621215155.667,-30.273,-42.969,-41.016,-34.668,0.000
1621215155.671,-29.297,-38.574,-40.039,-16.602,0.000
1621215155.675,-26.367,-42.969,-41.992,-6.836,0.000
1621215155.679,-20.508,-42.969,-49.316,-18.555,0.000
1621215155.682,-13.672,-41.992,-51.758,-25.391,0.000
1621215155.686,-20.508,-40.527,-47.363,-28.809,0.000
1621215155.690,-31.738,-33.691,-47.363,-24.902,0.000
1621215155.694,-27.344,-32.227,-47.852,-19.531,0.000
1621215155.698,-24.902,-29.785,-41.992,-26.855,0.000
1621215155.702,-27.832,-23.926,-40.039,-29.297,0.000
1621215155.706,-24.414,-23.438,-49.316,-22.949,0.000
1621215155.710,-23.438,-17.578,-54.199,-24.414,0.000
1621215155.714,-15.137,-14.160,-54.199,-28.809,0.000
1621215155.718,-11.230,-17.578,-51.270,-34.180,0.000
1621215155.722,-20.020,-13.672,-45.410,-29.785,0.000
1621215155.725,-21.973,-13.672,-56.641,-33.691,0.000
1621215155.729,-30.273,-17.090,-67.383,-44.922,0.000
1621215155.733,-33.691,-19.043,-65.918,-49.805,0.000
1621215155.737,-28.320,-17.090,-62.988,-45.898,0.000
1621215155.741,-33.203,-12.695,-56.641,-41.504,0.000
1621215155.745,-30.273,-15.137,-55.176,-43.945,0.000
1621215155.749,-17.578,-15.137,-58.594,-52.734,0.000
1621215155.753,-19.531,-16.602,-59.082,-44.434,0.000
1621215155.757,-15.625,-22.949,-57.617,-35.645,0.000
1621215155.761,-20.996,-21.484,-55.176,-44.434,0.000
1621215155.765,-23.438,-17.578,-45.410,-40.527,0.000
1621215155.768,-13.184,-24.414,-47.363,-46.387,0.000
1621215155.772,-12.207,-29.297,-56.152,-52.734,0.000
1621215155.776,-15.625,-23.438,-58.594,-47.852,0.000
1621215155.780,-18.066,-19.043,-52.734,-44.922,0.000
1621215155.784,-18.066,-25.879,-42.480,-34.668,0.000
1621215155.788,-15.137,-27.344,-48.340,-29.297,0.000
1621215155.792,-20.020,-25.879,-52.734,-20.508,0.000
1621215155.796,-18.066,-24.902,-49.805,-17.578,0.000
1621215155.800,-20.996,-23.926,-49.316,-25.391,0.000
1621215155.804,-17.090,-24.414,-41.992,-25.879,0.000
1621215155.807,-6.348,-24.902,-38.086,-19.043,0.000
1621215155.811,-5.371,-26.855,-34.668,-22.949,0.000
1621215155.815,-7.324,-26.367,-28.809,-26.855,0.000
1621215155.819,-11.230,-27.344,-41.016,-18.555,0.000
1621215155.823,-13.184,-23.438,-53.223,-9.766,0.000
1621215155.827,-8.789,-21.484,-47.363,-12.695,0.000
1621215155.831,-3.906,-25.879,-39.062,-15.137,0.000
1621215155.835,-9.277,-25.879,-40.527,-21.973,0.000
1621215155.839,-7.812,-22.949,-39.551,-19.531,0.000
1621215155.843,0.977,-22.949,-34.668,-26.855,0.000
1621215155.847,-2.441,-17.578,-36.621,-36.133,0.000
1621215155.850,-21.973,-19.043,-48.828,-37.598,0.000
1621215155.854,-25.391,-23.926,-47.852,-46.875,0.000
1621215155.858,-27.344,-25.391,-42.969,-43.457,0.000
1621215155.862,-30.762,-25.391,-48.828,-43.457,0.000
1621215155.866,-33.691,-28.809,-46.875,-51.270,0.000
1621215155.870,-28.320,-26.367,-39.551,-44.922,0.000
1621215155.874,-18.066,-19.043,-46.387,-34.180,0.000
1621215155.878,-20.020,-20.020,-52.734,-38.574,0.000
1621215155.882,-23.926,-18.066,-47.852,-44.922,0.000
1621215155.886,-21.973,-21.484,-42.969,-39.551,0.000
1621215155.890,-19.531,-22.949,-42.480,-20.996,0.000
1621215155.893,-20.020,-19.043,-48.340,-18.066,0.000
1621215155.897,-18.555,-20.996,-54.199,-30.762,0.000
1621215155.901,-16.113,-23.438,-53.223,-29.297,0.000
1621215155.905,-14.648,-20.508,-50.293,-24.414,0.000
1621215155.909,-15.625,-23.438,-53.223,-20.020,0.000
1621215155.913,-21.973,-28.809,-50.781,-32.715,0.000
1621215155.917,-22.461,-28.809,-50.781,-35.645,0.000
1621215155.921,-15.137,-28.809,-51.270,-26.367,0.000
1621215155.925,-3.906,-21.484,-41.016,-19.531,0.000
1621215155.929,-6.836,-13.184,-42.969,-26.367,0.000
1621215155.932,-23.926,-17.578,-51.270,-25.879,0.000
1621215155.936,-27.344,-24.414,-48.828,-25.391,0.000
1621215155.940,-20.996,-19.043,-45.410,-25.391,0.000
1621215155.944,-11.230,-20.020,-43.945,-24.902,0.000
1621215155.948,-11.719,-25.391,-40.039,-37.109,0.000
1621215155.952,-14.648,-25.391,-46.875,-33.203,0.000
1621215155.956,-8.301,-27.344,-58.105,-30.762,0.000
1621215155.960,-6.836,-25.391,-46.875,-22.949,0.000
1621215155.964,-14.648,-24.414,-41.504,-20.996,0.000
1621215155.968,-12.207,-22.461,-47.363,-24.414,0.000
1621215155.972,-16.602,-20.508,-42.969,-20.996,0.000
1621215155.975,-22.949,-23.438,-41.504,-31.250,0.000
1621215155.979,-22.461,-27.344,-41.016,-34.180,0.000
1621215155.983,-26.855,-30.762,-37.109,-37.109,0.000
1621215155.987,-31.250,-26.855,-38.574,-39.551,0.000
1621215155.991,-25.879,-24.414,-45.410,-37.598,0.000
1621215155.995,-18.066,-26.855,-46.387,-39.551,0.000
1621215155.999,-21.973,-27.344,-41.504,-40.527,0.000
1621215156.003,-24.414,-31.250,-41.992,-32.227,0.000
1621215156.007,-16.113,-32.715,-38.086,-27.344,0.000
1621215156.011,-23.438,-33.691,-39.551,-39.062,0.000
1621215156.015,-41.016,-40.039,-50.781,-41.016,0.000
1621215156.018,-47.363,-41.504,-47.363,-44.434,0.000
1621215156.022,-46.387,-39.062,-43.945,-41.016,0.000
1621215156.026,-39.062,-38.086,-47.363,-34.180,0.000
1621215156.030,-37.598,-33.203,-49.805,-41.016,0.000
1621215156.034,-43.945,-30.273,-44.434,-37.598,0.000
1621215156.038,-36.133,-30.762,-41.016,-33.691,0.000
1621215156.042,-35.645,-36.621,-44.922,-36.133,0.000
1621215156.046,-41.016,-41.016,-41.992,-33.203,0.000
1621215156.050,-28.320,-36.133,-36.621,-30.762,0.000
1621215156.054,-19.531,-27.832,-39.551,-20.020,0.000
1621215156.057,-21.973,-25.391,-39.062,-21.973,0.000
1621215156.061,-20.508,-24.902,-34.180,-29.297,0.000
1621215156.065,-21.973,-21.484,-41.504,-32.227,0.000
1621215156.069,-18.066,-19.043,-44.922,-27.832,0.000
1621215156.073,-23.926,-22.461,-50.781,-24.902,0.000
1621215156.077,-27.344,-24.414,-50.781,-26.367,0.000
1621215156.081,-20.020,-25.391,-47.363,-22.949,0.000
1621215156.085,-28.320,-30.273,-47.852,-34.180,0.000
1621215156.089,-25.391,-30.762,-41.992,-32.715,0.000
1621215156.093,-25.391,-30.762,-41.992,-28.809,0.000
1621215156.097,-28.320,-33.203,-43.457,-28.320,0.000
1621215156.100,-20.508,-31.738,-41.016,-20.020,0.000
1621215156.104,-20.996,-30.273,-42.969,-21.973,0.000
1621215156.108,-20.020,-29.785,-42.969,-24.902,0.000
1621215156.112,-19.531,-28.809,-49.805,-20.996,0.000
1621215156.116,-28.320,-32.227,-53.223,-17.090,0.000
1621215156.120,-32.227,-34.180,-48.340,-31.738,0.000
1621215156.124,-31.738,-32.715,-55.664,-32.227,0.000
1621215156.128,-32.227,-35.645,-57.617,-20.508,0.000
1621215156.132,-28.320,-32.715,-49.316,-30.762,0.000
1621215156.136,-25.879,-29.297,-43.457,-38.574,0.000
1621215156.140,-25.391,-25.879,-42.480,-33.203,0.000
1621215156.143,-27.344,-26.855,-38.574,-36.133,0.000
1621215156.147,-31.250,-33.203,-42.969,-35.645,0.000
1621215156.151,-35.156,-34.668,-50.781,-38.574,0.000
1621215156.155,-32.227,-35.156,-44.922,-36.133,0.000
1621215156.159,-27.832,-35.156,-50.781,-32.715,0.000
1621215156.163,-29.785,-30.273,-55.664,-30.762,0.000
1621215156.167,-31.250,-29.785,-40.039,-28.320,0.000
1621215156.171,-36.621,-34.668,-37.598,-33.203,0.000
1621215156.175,-34.180,-36.133,-43.457,-34.180,0.000
1621215156.179,-30.762,-37.598,-40.039,-35.156,0.000
1621215156.182,-29.785,-35.156,-37.598,-36.133,0.000
1621215156.186,-27.344,-32.227,-34.180,-27.344,0.000
1621215156.190,-27.832,-39.551,-30.273,-21.484,0.000
1621215156.194,-23.926,-42.480,-35.645,-27.344,0.000
1621215156.198,-23.438,-36.133,-41.992,-27.344,0.000
1621215156.202,-19.531,-38.574,-39.062,-24.414,0.000
1621215156.206,-12.695,-40.039,-28.320,-23.926,0.000
1621215156.210,-19.531,-36.621,-26.367,-24.414,0.000
1621215156.214,-29.785,-35.645,-41.016,-30.762,0.000
1621215156.218,-31.738,-32.715,-50.293,-30.273,0.000
1621215156.222,-32.715,-33.691,-54.199,-19.531,0.000
1621215156.225,-26.367,-30.762,-52.734,-23.926,0.000
1621215156.229,-22.461,-32.227,-47.852,-30.762,0.000
1621215156.233,-39.551,-36.133,-41.504,-29.297,0.000
1621215156.237,-47.363,-36.133,-37.109,-28.320,0.000
1621215156.241,-41.016,-34.180,-39.551,-22.461,0.000
1621215156.245,-38.086,-32.227,-41.504,-12.207,0.000
1621215156.249,-32.227,-36.621,-36.621,-11.230,0.000
1621215156.253,-22.461,-36.621,-34.668,-16.602,0.000
1621215156.257,-14.160,-32.715,-39.551,-14.160,0.000
1621215156.261,-18.066,-31.250,-50.293,-20.508,0.000
1621215156.265,-26.855,-30.273,-48.828,-19.043,0.000
1621215156.268,-30.762,-29.785,-50.781,-23.438,0.000
1621215156.272,-27.344,-32.715,-52.246,-30.273,0.000
1621215156.276,-20.508,-32.715,-45.410,-25.391,0.000
1621215156.280,-25.879,-34.180,-47.852,-29.785,0.000
1621215156.284,-31.250,-40.039,-54.199,-30.762,0.000
1621215156.288,-31.738,-37.109,-54.688,-31.738,0.000
1621215156.292,-23.926,-33.691,-50.781,-27.832,0.000
1621215156.296,-13.184,-31.738,-34.668,-19.043,0.000
1621215156.300,-33.691,-33.691,-27.832,-23.926,0.000
1621215156.304,-44.922,-34.180,-54.688,-28.320,0.000
1621215156.307,-38.086,-38.086,-46.387,-27.344,0.000
1621215156.311,-40.039,-44.434,-26.367,-29.785,0.000
1621215156.315,-51.270,-45.898,-17.090,-47.363,0.000
1621215156.319,-61.035,-46.387,-36.133,-60.059,0.000
1621215156.323,-62.988,-52.246,-48.340,-58.594,0.000
1621215156.327,-69.824,-59.570,-16.602,-58.594,0.000
1621215156.331,-85.938,-62.988,-4.395,-63.965,0.000
1621215156.335,-80.078,-63.965,6.836,-45.410,0.000
1621215156.339,-67.871,-63.965,-0.488,-30.273,0.000
1621215156.343,-67.383,-62.012,-10.254,-37.598,0.000
1621215156.347,-65.918,-61.035,-13.184,-31.250,0.000
1621215156.350,-57.129,-57.617,-24.902,-33.691,0.000
1621215156.354,-47.363,-56.152,-18.555,-30.273,0.000
1621215156.358,-50.781,-62.500,-15.625,-27.832,0.000
1621215156.362,-51.270,-59.082,-16.602,-30.273,0.000
1621215156.366,-45.898,-55.176,-15.625,-33.691,0.000
1621215156.370,-37.109,-54.199,-20.508,-18.066,0.000
1621215156.374,-33.203,-48.828,-26.367,-6.836,0.000
1621215156.378,-34.668,-46.387,-31.250,-14.648,0.000
1621215156.382,-14.648,-45.898,-29.785,-4.395,0.000
1621215156.386,-9.766,-41.504,-17.578,4.883,0.000
1621215156.390,-14.160,-38.086,-22.461,-3.906,0.000
1621215156.393,-20.508,-41.016,-45.410,-17.090,0.000
1621215156.397,-27.344,-39.062,-43.457,-20.996,0.000
1621215156.401,-24.902,-39.062,-38.574,-16.113,0.000
1621215156.405,-28.809,-43.945,-37.598,-17.578,0.000
1621215156.409,-24.902,-44.434,-31.250,-18.555,0.000
1621215156.413,-20.020,-42.969,-28.320,-20.020,0.000
1621215156.417,-22.949,-42.480,-30.273,-16.602,0.000
1621215156.421,-21.484,-41.992,-30.762,-14.648,0.000
1621215156.425,-18.555,-44.434,-29.785,-7.324,0.000
1621215156.429,-24.414,-49.316,-30.762,-15.625,0.000
1621215156.432,-34.180,-49.316,-38.574,-28.809,0.000
1621215156.436,-37.598,-49.316,-52.734,-35.645,0.000
1621215156.440,-35.156,-50.293,-47.852,-34.180,0.000
1621215156.444,-35.645,-49.805,-39.551,-28.809,0.000
1621215156.448,-36.621,-48.828,-39.551,-23.438,0.000
1621215156.452,-38.086,-43.945,-42.480,-21.973,0.000
1621215156.456,-29.785,-41.992,-44.922,-21.484,0.000
1621215156.460,-25.879,-44.922,-34.180,-5.371,0.000
1621215156.464,-32.227,-47.852,-33.203,-13.672,0.000
1621215156.468,-31.250,-45.898,-48.340,-26.367,0.000
1621215156.472,-17.578,-40.527,-42.480,-13.672,0.000
1621215156.475,-22.461,-40.039,-36.133,-10.742,0.000
1621215156.479,-35.156,-43.457,-45.898,-20.996,0.000
1621215156.483,-36.133,-46.387,-45.410,-26.367,0.000
1621215156.487,-36.621,-44.922,-37.598,-19.043,0.000
1621215156.491,-32.715,-46.875,-35.156,-21.973,0.000
1621215156.495,-29.297,-44.922,-32.227,-30.762,0.000
1621215156.499,-29.297,-38.574,-32.715,-19.531,0.000
1621215156.503,-23.438,-35.156,-40.527,-13.672,0.000
1621215156.507,-20.020,-36.133,-35.645,-13.184,0.000
1621215156.511,-22.949,-37.109,-36.133,-17.090,0.000
1621215156.515,-14.648,-35.645,-46.387,-25.879,0.000
1621215156.518,0.488,-35.645,-44.434,-24.414,0.000
1621215156.522,-7.324,-30.273,-51.270,-21.973,0.000
1621215156.526,-17.578,-28.320,-46.387,-22.949,0.000
1621215156.530,-23.438,-32.715,-47.852,-25.879,0.000
1621215156.534,-29.297,-36.133,-50.293,-32.227,0.000
1621215156.538,-31.250,-38.574,-47.363,-38.574,0.000
1621215156.542,-30.273,-35.156,-46.875,-28.320,0.000
1621215156.546,-31.250,-31.250,-42.969,-25.391,0.000
1621215156.550,-32.715,-32.227,-42.480,-26.855,0.000
1621215156.554,-24.902,-35.645,-43.945,-16.113,0.000
1621215156.557,-22.949,-36.133,-39.551,-11.230,0.000
1621215156.561,-23.438,-38.574,-34.668,-11.230,0.000
1621215156.565,-23.438,-37.109,-39.062,-16.602,0.000
1621215156.569,-22.461,-37.598,-39.551,-17.578,0.000
1621215156.573,-24.414,-42.969,-39.062,-16.113,0.000
1621215156.577,-22.461,-39.062,-39.551,-23.438,0.000
1621215156.581,-16.113,-33.203,-41.016,-21.484,0.000
1621215156.585,-22.949,-32.715,-46.875,-27.832,0.000
1621215156.589,-26.855,-32.715,-44.922,-27.832,0.000
1621215156.593,-22.461,-33.203,-48.340,-21.973,0.000
1621215156.597,-20.508,-31.250,-49.805,-33.691,0.000
1621215156.600,-16.602,-27.344,-42.969,-36.621,0.000
1621215156.604,-7.324,-31.250,-38.574,-27.344,0.000
1621215156.608,-13.184,-40.039,-44.434,-27.832,0.000
1621215156.612,-19.531,-37.109,-53.223,-35.156,0.000
1621215156.616,-20.020,-31.250,-51.270,-34.180,0.000
1621215156.620,-22.461,-29.297,-52.734,-23.438,0.000
1621215156.624,-24.414,-29.297,-50.293,-13.184,0.000
1621215156.628,-27.344,-34.180,-42.480,-19.531,0.000
1621215156.632,-25.391,-35.645,-34.668,-20.020,0.000
1621215156.636,-29.297,-33.203,-33.691,-14.160,0.000
1621215156.640,-29.785,-31.250,-36.621,-17.090,0.000
1621215156.643,-27.832,-29.785,-40.527,-23.926,0.000
1621215156.647,-28.809,-29.297,-44.434,-30.273,0.000
1621215156.651,-29.785,-29.785,-36.133,-28.809,0.000
1621215156.655,-28.320,-32.715,-35.156,-20.996,0.000
1621215156.659,-19.043,-30.762,-37.109,-16.602,0.000
1621215156.663,-19.531,-27.344,-34.180,-23.926,0.000
1621215156.667,-21.973,-28.320,-32.227,-30.273,0.000
1621215156.671,-22.461,-30.762,-31.738,-23.438,0.000
1621215156.675,-20.996,-32.715,-40.527,-25.391,0.000
1621215156.679,-23.926,-35.645,-46.387,-28.809,0.000
1621215156.682,-32.715,-38.086,-40.039,-29.297,0.000
1621215156.686,-26.855,-38.086,-33.691,-25.879,0.000
1621215156.690,-26.367,-35.156,-39.551,-27.344,0.000
1621215156.694,-36.621,-38.086,-44.922,-32.227,0.000
1621215156.698,-36.133,-36.133,-40.039,-33.203,0.000
1621215156.702,-32.715,-32.227,-33.691,-32.715,0.000
1621215156.706,-33.691,-36.133,-33.691,-30.273,0.000
1621215156.710,-30.762,-39.062,-33.691,-17.090,0.000
1621215156.714,-31.250,-30.273,-41.992,-18.555,0.000
1621215156.718,-32.227,-24.902,-52.246,-35.645,0.000
1621215156.722,-27.832,-26.367,-56.641,-39.062,0.000
1621215156.725,-16.113,-24.414,-60.547,-25.391,0.000
1621215156.729,-14.160,-20.508,-59.570,-23.926,0.000
1621215156.733,-16.113,-14.160,-61.035,-30.762,0.000
1621215156.737,-10.742,-15.137,-59.082,-31.250,0.000
1621215156.741,-11.230,-12.207,-57.129,-24.414,0.000
1621215156.745,-13.184,-10.254,-65.918,-27.344,0.000
1621215156.749,-9.766,-12.207,-72.754,-25.879,0.000
1621215156.753,-3.418,-7.812,-69.824,-19.043,0.000
1621215156.757,5.371,0.488,-65.918,-24.902,0.000
1621215156.761,12.695,2.930,-64.453,-23.438,0.000
1621215156.765,17.578,1.465,-68.359,-13.672,0.000
1621215156.768,18.555,5.859,-68.359,-15.137,0.000
1621215156.772,15.625,3.906,-64.453,-13.672,0.000
1621215156.776,11.719,-0.488,-69.336,-10.254,0.000
1621215156.780,10.254,3.418,-69.336,-24.902,0.000
1621215156.784,9.766,2.930,-72.754,-29.785,0.000
1621215156.788,9.277,2.441,-68.848,-24.414,0.000
1621215156.792,-8.301,-1.953,-64.453,-34.180,0.000
1621215156.796,-17.090,-7.812,-63.965,-38.574,0.000
1621215156.800,-17.090,-9.766,-59.082,-45.410,0.000
1621215156.804,-11.719,-8.789,-54.688,-46.875,0.000
1621215156.807,-9.277,-14.160,-55.664,-40.527,0.000
1621215156.811,-16.602,-22.949,-52.246,-37.598,0.000
1621215156.815,-12.207,-19.531,-54.199,-40.039,0.000
1621215156.819,-5.371,-30.273,-57.617,-33.691,0.000
1621215156.823,-7.812,-34.180,-53.711,-26.855,0.000
1621215156.827,-24.414,-22.949,-51.270,-34.180,0.000
1621215156.831,-18.555,-24.414,-47.363,-41.504,0.000
1621215156.835,-5.371,-14.160,-44.434,-32.715,0.000
1621215156.839,-10.742,0.000,-49.805,-25.879,0.000
1621215156.843,-7.812,-2.441,-54.199,-25.391,0.000
1621215156.847,-7.812,-5.371,-52.246,-20.020,0.000
1621215156.850,-5.371,-4.395,-44.434,-18.555,0.000
1621215156.854,-3.418,-6.836,-42.969,-21.484,0.000
1621215156.858,-11.719,-15.137,-51.270,-15.625,0.000
1621215156.862,-19.043,-18.555,-51.270,-16.602,0.000
1621215156.866,-17.578,-19.043,-47.363,-20.020,0.000
1621215156.870,-17.090,-15.625,-47.363,-16.113,0.000
1621215156.874,-17.090,-14.648,-45.898,-16.113,0.000
1621215156.878,-12.695,-18.555,-46.387,-22.949,0.000
1621215156.882,-17.578,-17.090,-47.852,-29.785,0.000
1621215156.886,-21.484,-22.461,-45.898,-26.855,0.000
1621215156.890,-11.719,-23.438,-40.527,-18.555,0.000
1621215156.893,0.000,-25.391,-42.480,-22.461,0.000
1621215156.897,-14.648,-30.273,-45.898,-32.715,0.000
1621215156.901,-23.438,-24.902,-37.598,-30.762,0.000
1621215156.905,-19.043,-20.020,-39.062,-21.484,0.000
1621215156.909,-28.320,-26.367,-49.805,-26.855,0.000
1621215156.913,-38.574,-27.832,-49.316,-38.086,0.000
1621215156.917,-36.133,-24.414,-48.828,-46.875,0.000
1621215156.921,-27.832,-26.367,-50.781,-33.691,0.000
1621215156.925,-15.625,-30.273,-41.016,-22.461,0.000
1621215156.929,-21.484,-27.832,-43.457,-38.086,0.000
1621215156.932,-28.320,-22.461,-60.547,-50.293,0.000
1621215156.936,-26.855,-20.508,-67.383,-40.039,0.000
1621215156.940,-18.555,-20.508,-63.477,-35.645,0.000
1621215156.944,-19.531,-19.531,-52.734,-31.738,0.000
1621215156.948,-35.156,-13.672,-47.852,-25.391,0.000
1621215156.952,-34.180,-16.602,-49.316,-37.109,0.000
1621215156.956,-27.344,-24.414,-46.875,-41.992,0.000
1621215156.960,-33.203,-24.414,-42.969,-37.598,0.000
1621215156.964,-38.574,-27.344,-42.480,-41.016,0.000
1621215156.968,-41.016,-34.180,-43.457,-31.738,0.000
1621215156.972,-39.062,-34.180,-47.852,-37.109,0.000
1621215156.975,-35.156,-29.785,-46.387,-41.504,0.000
1621215156.979,-27.344,-21.973,-50.293,-36.621,0.000
1621215156.983,-34.668,-23.926,-58.594,-48.340,0.000
1621215156.987,-46.875,-28.809,-53.711,-43.945,0.000
1621215156.991,-42.969,-25.391,-48.828,-40.527,0.000
1621215156.995,-31.250,-26.367,-53.711,-52.246,0.000
1621215156.999,-35.156,-31.738,-53.223,-52.734,0.000
1621215157.003,-48.828,-39.062,-51.758,-43.945,0.000
1621215157.007,-52.246,-38.574,-57.129,-42.969,0.000
1621215157.011,-47.852,-33.203,-53.711,-40.039,0.000
1621215157.015,-39.062,-32.715,-48.340,-35.156,0.000
1621215157.018,-43.457,-37.598,-51.270,-42.480,0.000
1621215157.022,-33.691,-35.156,-49.805,-37.109,0.000
1621215157.026,-31.250,-27.832,-46.875,-29.785,0.000
1621215157.030,-32.715,-25.879,-45.898,-38.574,0.000
1621215157.034,-29.785,-25.879,-46.387,-38.086,0.000
1621215157.038,-26.367,-23.926,-43.457,-33.691,0.000
1621215157.042,-16.602,-21.973,-44.922,-37.598,0.000
1621215157.046,-16.113,-27.832,-47.852,-36.133,0.000
1621215157.050,-19.531,-31.250,-41.504,-32.715,0.000
1621215157.054,-21.484,-29.785,-38.086,-35.645,0.000
1621215157.057,-16.113,-23.438,-39.551,-25.391,0.000
1621215157.061,-23.438,-21.973,-42.480,-21.973,0.000
1621215157.065,-37.109,-21.973,-43.945,-39.062,0.000
1621215157.069,-32.715,-24.414,-46.875,-33.691,0.000
1621215157.073,-27.832,-33.203,-49.316,-22.949,0.000
1621215157.077,-22.461,-33.203,-51.270,-20.508,0.000
1621215157.081,-19.043,-27.344,-52.246,-23.438,0.000
1621215157.085,-22.461,-30.273,-47.852,-30.762,0.000
1621215157.089,-25.391,-32.715,-46.387,-28.809,0.000
1621215157.093,-27.344,-29.785,-44.922,-35.645,0.000
1621215157.097,-27.344,-31.738,-46.875,-46.387,0.000
1621215157.100,-32.715,-35.156,-48.828,-47.852,0.000
1621215157.104,-31.738,-31.738,-45.898,-42.969,0.000
1621215157.108,-35.156,-28.809,-45.898,-38.086,0.000
1621215157.112,-26.367,-29.785,-39.062,-28.809,0.000
1621215157.116,-27.344,-28.320,-34.180,-16.602,0.000
1621215157.120,-24.414,-24.414,-40.527,-6.348,0.000
1621215157.124,-9.277,-24.902,-41.016,-7.324,0.000
1621215157.128,-15.625,-30.273,-37.109,-7.812,0.000
1621215157.132,-15.137,-22.949,-36.133,-11.719,0.000
1621215157.136,-10.742,-13.672,-36.621,-13.672,0.000
1621215157.140,-10.742,-14.648,-41.992,-11.230,0.000
1621215157.143,-8.301,-10.742,-47.363,-18.555,0.000
1621215157.147,-18.066,-14.648,-48.828,-27.344,0.000
1621215157.151,-16.602,-23.438,-46.875,-23.926,0.000
1621215157.155,-17.578,-23.438,-49.316,-22.461,0.000
1621215157.159,-26.367,-29.297,-49.805,-23.926,0.000
1621215157.163,-19.043,-31.738,-52.246,-22.461,0.000
1621215157.167,-13.672,-23.926,-50.781,-17.578,0.000
1621215157.171,-20.508,-20.508,-37.598,-18.555,0.000
1621215157.175,-22.949,-23.926,-46.875,-16.602,0.000
1621215157.179,-25.879,-31.250,-64.453,-17.578,0.000
1621215157.182,-29.297,-35.645,-58.594,-25.879,0.000
1621215157.186,-23.926,-27.344,-52.246,-31.738,0.000
1621215157.190,-16.113,-22.461,-46.875,-38.574,0.000
1621215157.194,-18.555,-26.367,-46.387,-32.227,0.000
1621215157.198,-20.508,-25.879,-46.387,-20.020,0.000
1621215157.202,-30.762,-20.020,-41.992,-23.926,0.000
1621215157.206,-32.227,-24.902,-42.480,-26.855,0.000
1621215157.210,-28.809,-29.297,-40.039,-25.879,0.000
1621215157.214,-30.762,-30.273,-40.039,-25.391,0.000
1621215157.218,-41.504,-35.156,-44.434,-24.902,0.000
1621215157.222,-41.504,-32.715,-42.969,-24.902,0.000
1621215157.225,-32.227,-27.344,-42.480,-25.391,0.000
1621215157.229,-37.109,-31.738,-45.898,-34.668,0.000
1621215157.233,-30.762,-39.062,-41.992,-38.574,0.000
1621215157.237,-17.578,-35.156,-52.734,-36.133,0.000
1621215157.241,-19.531,-31.250,-57.129,-26.855,0.000
1621215157.245,-29.785,-31.738,-50.781,-28.320,0.000
1621215157.249,-28.320,-31.738,-48.828,-29.297,0.000
1621215157.253,-15.137,-32.715,-45.410,-24.902,0.000
1621215157.257,-16.113,-35.645,-44.922,-20.996,0.000
1621215157.261,-26.855,-37.598,-51.758,-37.598,0.000
1621215157.265,-24.414,-29.297,-53.711,-43.457,0.000
1621215157.268,-23.438,-24.902,-49.316,-27.832,0.000
1621215157.272,-35.645,-29.785,-47.852,-25.879,0.000
1621215157.276,-35.645,-31.738,-39.062,-34.668,0.000
1621215157.280,-18.555,-31.738,-40.039,-35.645,0.000
1621215157.284,-7.324,-32.715,-45.898,-25.879,0.000
1621215157.288,-10.742,-31.738,-43.945,-14.648,0.000
1621215157.292,-15.137,-29.785,-43.945,-13.184,0.000
1621215157.296,-14.160,-33.691,-45.898,-16.602,0.000
1621215157.300,-19.043,-29.785,-48.828,-15.625,0.000
1621215157.304,-20.020,-25.879,-48.828,-9.277,0.000
1621215157.307,-20.508,-30.762,-44.434,-21.973,0.000
1621215157.311,-26.367,-32.715,-44.922,-35.156,0.000
1621215157.315,-26.855,-28.320,-42.480,-28.320,0.000
1621215157.319,-24.414,-22.949,-41.016,-28.320,0.000
1621215157.323,-22.949,-23.926,-42.480,-30.762,0.000
1621215157.327,-16.602,-31.250,-43.457,-28.809,0.000
1621215157.331,-8.789,-30.762,-42.480,-27.344,0.000
1621215157.335,-17.578,-29.297,-47.363,-32.227,0.000
1621215157.339,-21.973,-35.645,-50.781,-28.320,0.000
1621215157.343,-11.230,-34.180,-47.852,-28.320,0.000
1621215157.347,-8.301,-31.250,-48.828,-35.645,0.000
1621215157.350,-9.766,-32.227,-48.828,-25.879,0.000
1621215157.354,-4.883,-32.715,-46.387,-9.766,0.000
1621215157.358,-6.348,-32.227,-43.945,-7.812,0.000
1621215157.362,-20.020,-33.691,-46.875,-25.391,0.000
1621215157.366,-19.043,-34.180,-54.688,-37.109,0.000
1621215157.370,-14.160,-34.180,-54.199,-26.855,0.000
1621215157.374,-24.414,-35.645,-50.293,-32.227,0.000
1621215157.378,-28.809,-33.691,-43.945,-41.016,0.000
1621215157.382,-29.785,-32.715,-41.504,-38.086,0.000
1621215157.386,-31.738,-32.227,-39.062,-28.320,0.000
1621215157.390,-26.855,-34.180,-34.180,-18.066,0.000
1621215157.393,-27.832,-36.133,-48.340,-21.484,0.000
1621215157.397,-31.250,-39.062,-59.082,-30.273,0.000
1621215157.401,-28.809,-41.016,-51.270,-23.926,0.000
1621215157.405,-29.785,-39.062,-45.410,-12.695,0.000
1621215157.409,-27.344,-30.762,-46.387,-17.578,0.000
1621215157.413,-24.414,-26.855,-46.875,-27.832,0.000
1621215157.417,-25.391,-33.203,-47.852,-32.227,0.000
1621215157.421,-33.203,-35.156,-50.781,-39.062,0.000
1621215157.425,-31.738,-31.250,-43.457,-36.621,0.000
1621215157.429,-26.367,-28.809,-36.621,-28.320,0.000
1621215157.432,-31.738,-33.203,-35.156,-23.926,0.000
1621215157.436,-40.039,-35.645,-39.551,-22.949,0.000
1621215157.440,-33.203,-31.738,-45.898,-29.785,0.000
1621215157.444,-33.691,-31.250,-45.898,-33.203,0.000
1621215157.448,-36.133,-36.133,-41.504,-24.902,0.000
1621215157.452,-26.367,-39.551,-39.062,-22.949,0.000
1621215157.456,-25.391,-36.133,-46.387,-29.297,0.000
1621215157.460,-21.484,-29.297,-41.016,-28.320,0.000
1621215157.464,-16.113,-29.785,-40.039,-30.273,0.000
1621215157.468,-12.207,-28.320,-40.527,-31.738,0.000
1621215157.472,-9.766,-21.484,-35.156,-24.902,0.000
1621215157.475,-21.973,-22.949,-34.180,-17.090,0.000
1621215157.479,-20.020,-23.926,-37.109,-19.043,0.000
1621215157.483,-9.766,-20.508,-43.457,-16.113,0.000
1621215157.487,-7.812,-19.043,-35.645,0.977,0.000
1621215157.491,-7.812,-24.902,-29.297,-9.277,0.000
1621215157.495,-15.137,-31.250,-28.809,-21.973,0.000
1621215157.499,-23.926,-30.762,-28.809,-19.043,0.000
1621215157.503,-22.949,-36.133,-36.133,-20.020,0.000
1621215157.507,-17.578,-38.574,-35.156,-17.090,0.000
1621215157.511,-32.227,-34.180,-30.762,-24.414,0.000
1621215157.515,-34.180,-35.156,-33.203,-31.738,0.000
1621215157.518,-24.414,-33.691,-32.227,-31.250,0.000
1621215157.522,-32.227,-29.785,-36.621,-29.785,0.000
1621215157.526,-31.250,-32.715,-43.945,-19.531,0.000
1621215157.530,-26.367,-31.738,-41.016,-25.391,0.000
1621215157.534,-30.273,-26.367,-36.133,-32.227,0.000
1621215157.538,-26.855,-29.785,-40.527,-30.762,0.000
1621215157.542,-26.855,-30.273,-49.316,-35.645,0.000
1621215157.546,-28.320,-27.832,-53.223,-38.574,0.000
1621215157.550,-27.832,-40.039,-53.223,-39.551,0.000
1621215157.554,-20.996,-48.828,-47.852,-34.668,0.000
1621215157.557,-27.832,-45.410,-41.504,-28.809,0.000
1621215157.561,-33.691,-44.434,-44.434,-20.996,0.000
1621215157.565,-33.691,-48.340,-49.805,-28.809,0.000
1621215157.569,-29.785,-45.410,-46.875,-30.762,0.000
1621215157.573,-30.273,-40.527,-48.828,-28.809,0.000
1621215157.577,-35.156,-30.273,-50.293,-35.645,0.000
1621215157.581,-28.320,-27.344,-47.852,-33.691,0.000
1621215157.585,-26.855,-35.156,-53.711,-40.039,0.000
1621215157.589,-33.691,-34.180,-55.176,-32.715,0.000
1621215157.593,-29.297,-37.598,-50.781,-20.508,0.000
1621215157.597,-14.648,-40.039,-47.852,-22.461,0.000
1621215157.600,-15.137,-37.109,-46.387,-22.461,0.000
1621215157.604,-19.531,-38.574,-54.199,-13.672,0.000
1621215157.608,-18.555,-37.109,-61.523,-16.602,0.000
1621215157.612,-26.367,-38.574,-56.152,-29.785,0.000
1621215157.616,-32.227,-33.691,-40.039,-26.855,0.000
1621215157.620,-28.809,-25.879,-40.527,-25.391,0.000
1621215157.624,-19.043,-25.879,-48.340,-25.879,0.000
1621215157.628,-21.973,-29.297,-48.828,-30.273,0.000
1621215157.632,-21.484,-29.297,-42.969,-35.156,0.000
1621215157.636,-17.090,-28.809,-40.039,-37.598,0.000
1621215157.640,-31.250,-32.715,-41.992,-40.527,0.000
1621215157.643,-37.109,-32.715,-46.875,-36.621,0.000
1621215157.647,-23.438,-26.367,-46.875,-34.180,0.000
1621215157.651,-19.043,-24.902,-40.039,-35.645,0.000
1621215157.655,-16.602,-27.344,-42.969,-25.879,0.000
1621215157.659,-21.484,-23.438,-44.434,-22.949,0.000
1621215157.663,-19.043,-24.902,-44.434,-29.785,0.000
1621215157.667,-11.230,-25.391,-42.480,-34.180,0.000
1621215157.671,-13.672,-25.879,-33.691,-32.715,0.000
1621215157.675,-16.602,-29.297,-41.016,-23.438,0.000
1621215157.679,-14.160,-29.297,-50.293,-29.785,0.000
1621215157.682,-16.113,-31.738,-42.969,-30.762,0.000
1621215157.686,-17.578,-25.391,-31.738,-19.531,0.000
1621215157.690,-8.789,-19.531,-24.902,-17.090,0.000
1621215157.694,-16.602,-21.973,-29.297,-28.320,0.000
1621215157.698,-22.949,-22.949,-41.992,-35.156,0.000
1621215157.702,-17.090,-24.414,-49.805,-27.344,0.000
1621215157.706,-17.578,-28.809,-42.480,-28.320,0.000
1621215157.710,-23.926,-29.785,-41.016,-35.156,0.000
1621215157.714,-20.020,-33.203,-43.457,-33.691,0.000
1621215157.718,-15.625,-40.039,-41.016,-23.438,0.000
1621215157.722,-20.020,-37.598,-39.062,-17.578,0.000
1621215157.725,-21.484,-29.297,-36.133,-17.090,0.000
1621215157.729,-24.414,-29.297,-40.039,-23.438,0.000
1621215157.733,-18.066,-32.227,-42.969,-25.391,0.000
1621215157.737,-13.184,-32.227,-41.992,-27.344,0.000
1621215157.741,-23.926,-30.762,-45.410,-34.668,0.000
1621215157.745,-31.250,-30.273,-47.363,-37.109,0.000
1621215157.749,-28.320,-34.668,-47.363,-41.992,0.000
1621215157.753,-23.438,-35.156,-46.387,-35.156,0.000
1621215157.757,-19.043,-31.250,-48.340,-36.133,0.000
1621215157.761,-15.625,-31.738,-48.340,-46.387,0.000
1621215157.765,-21.484,-33.203,-47.852,-40.039,0.000
1621215157.768,-24.902,-34.180,-49.316,-38.574,0.000
1621215157.772,-24.414,-35.645,-50.293,-42.480,0.000
1621215157.776,-28.809,-38.574,-43.457,-31.738,0.000
1621215157.780,-31.738,-37.598,-37.109,-30.273,0.000
1621215157.784,-39.551,-33.691,-35.156,-36.133,0.000
1621215157.788,-39.551,-40.039,-31.738,-32.715,0.000
1621215157.792,-44.434,-39.551,-31.738,-31.250,0.000
1621215157.796,-48.828,-36.133,-28.809,-33.203,0.000
1621215157.800,-46.387,-42.480,-29.785,-35.645,0.000
1621215157.804,-48.340,-45.898,-33.691,-30.273,0.000
1621215157.807,-49.316,-49.805,-28.320,-31.738,0.000
1621215157.811,-42.969,-53.711,-27.344,-33.691,0.000
1621215157.815,-42.969,-48.340,-24.414,-26.855,0.000
1621215157.819,-50.293,-47.363,-23.926,-24.414,0.000
1621215157.823,-49.805,-44.434,-25.391,-28.320,0.000
1621215157.827,-40.527,-35.156,-21.484,-32.715,0.000
1621215157.831,-34.180,-35.645,-26.855,-31.738,0.000
1621215157.835,-47.852,-41.504,-28.320,-34.180,0.000
1621215157.839,-57.617,-40.039,-27.832,-40.039,0.000
1621215157.843,-62.012,-34.668,-28.809,-44.922,0.000
1621215157.847,-61.523,-30.273,-27.832,-52.734,0.000
1621215157.850,-57.129,-26.367,-29.785,-53.711,0.000
1621215157.854,-62.988,-26.855,-26.855,-50.781,0.000
1621215157.858,-64.941,-33.691,-29.297,-63.477,0.000
1621215157.862,-65.430,-38.574,-38.574,-75.684,0.000
1621215157.866,-72.754,-38.086,-39.062,-72.266,0.000
1621215157.870,-68.848,-34.180,-30.273,-65.430,0.000
1621215157.874,-58.594,-31.738,-32.227,-65.918,0.000
1621215157.878,-54.199,-33.203,-28.809,-62.988,0.000
1621215157.882,-45.898,-31.738,-16.113,-51.758,0.000
1621215157.886,-46.387,-31.738,-31.738,-51.270,0.000
1621215157.890,-40.527,-31.738,-38.086,-46.387,0.000
1621215157.893,-39.062,-31.738,-28.809,-41.504,0.000
1621215157.897,-41.992,-35.645,-30.762,-48.340,0.000
1621215157.901,-46.875,-40.039,-32.715,-40.527,0.000
1621215157.905,-49.316,-40.039,-36.133,-38.574,0.000
1621215157.909,-42.480,-39.551,-35.645,-48.340,0.000
1621215157.913,-35.156,-40.039,-41.016,-50.781,0.000
1621215157.917,-33.203,-42.969,-53.223,-41.992,0.000
1621215157.921,-26.855,-41.992,-49.316,-35.156,0.000
1621215157.925,-23.926,-39.551,-43.945,-36.133,0.000
1621215157.929,-30.762,-40.039,-41.992,-26.367,0.000
1621215157.932,-25.879,-32.227,-36.133,-21.484,0.000
1621215157.936,-22.949,-30.273,-39.551,-17.090,0.000
1621215157.940,-28.320,-34.668,-39.551,-16.602,0.000
1621215157.944,-32.715,-35.156,-40.527,-19.531,0.000
1621215157.948,-30.762,-34.668,-50.781,-17.090,0.000
1621215157.952,-22.949,-30.273,-44.922,-15.625,0.000
1621215157.956,-27.832,-31.738,-35.645,-11.719,0.000
1621215157.960,-27.344,-36.133,-43.457,-10.742,0.000
1621215157.964,-19.531,-37.598,-51.270,-10.254,0.000
1621215157.968,-24.414,-35.156,-46.387,-17.578,0.000
1621215157.972,-19.531,-29.297,-38.574,-15.625,0.000
1621215157.975,-5.371,-24.414,-36.133,-12.695,0.000
1621215157.979,-8.789,-25.391,-34.668,-16.113,0.000
1621215157.983,-9.277,-24.414,-34.668,-9.766,0.000
1621215157.987,-8.789,-26.855,-33.691,-6.348,0.000
1621215157.991,-9.766,-28.809,-29.297,-13.184,0.000
1621215157.995,-14.648,-27.832,-32.227,-27.344,0.000
1621215157.999,-16.113,-28.809,-44.434,-27.344,0.000
1621215158.003,-11.230,-31.738,-54.199,-22.461,0.000
1621215158.007,-9.766,-27.832,-48.828,-26.367,0.000
1621215158.011,-19.043,-22.949,-41.016,-24.902,0.000
1621215158.015,-12.695,-27.344,-35.645,-25.391,0.000
1621215158.018,1.465,-28.320,-41.016,-12.695,0.000
1621215158.022,-10.742,-24.414,-47.363,-5.859,0.000
1621215158.026,-21.484,-24.902,-45.410,-27.344,0.000
1621215158.030,-14.648,-21.484,-47.852,-31.738,0.000
1621215158.034,-18.066,-26.855,-57.617,-25.879,0.000
1621215158.038,-30.273,-27.344,-54.688,-32.715,0.000
1621215158.042,-30.273,-20.996,-52.246,-45.410,0.000
1621215158.046,-25.879,-19.531,-53.711,-48.340,0.000
1621215158.050,-32.715,-20.508,-55.664,-51.758,0.000
1621215158.054,-33.691,-23.438,-64.941,-56.641,0.000
1621215158.057,-41.016,-24.902,-66.895,-58.594,0.000
1621215158.061,-44.434,-23.926,-56.641,-59.082,0.000
1621215158.065,-35.156,-25.391,-55.176,-47.852,0.000
1621215158.069,-37.598,-27.344,-77.148,-40.527,0.000
1621215158.073,-43.457,-25.391,-72.266,-36.621,0.000
1621215158.077,-35.645,-23.438,-51.758,-27.344,0.000
1621215158.081,-31.250,-25.879,-56.152,-25.879,0.000
1621215158.085,-28.809,-24.902,-57.129,-31.250,0.000
1621215158.089,-25.879,-30.273,-53.711,-21.484,0.000
1621215158.093,-20.508,-34.180,-50.781,-12.207,0.000
1621215158.097,-24.414,-33.203,-53.223,-16.602,0.000
1621215158.100,-30.762,-36.621,-56.152,-16.113,0.000
1621215158.104,-20.508,-38.086,-49.805,-15.137,0.000
1621215158.108,-15.137,-35.156,-51.758,-18.555,0.000
1621215158.112,-10.742,-35.645,-56.641,-17.578,0.000
1621215158.116,-8.301,-34.668,-59.570,-14.160,0.000
1621215158.120,-5.371,-31.250,-53.223,-14.648,0.000
1621215158.124,-15.137,-38.086,-53.711,-19.043,0.000
1621215158.128,-21.484,-45.410,-62.012,-19.531,0.000
1621215158.132,-24.414,-41.504,-57.617,-19.043,0.000
1621215158.136,-24.902,-32.715,-46.387,-20.508,0.000
1621215158.140,-9.766,-27.832,-37.598,-8.301,0.000
1621215158.143,-7.812,-29.297,-44.434,-10.254,0.000
1621215158.147,-16.113,-26.855,-48.828,-18.555,0.000
1621215158.151,-10.742,-25.391,-42.969,-10.254,0.000
1621215158.155,-5.859,-27.344,-37.598,-5.859,0.000
1621215158.159,-4.395,-29.297,-55.664,-8.301,0.000
1621215158.163,0.000,-32.227,-55.176,-18.066,0.000
1621215158.167,-6.836,-35.645,-49.805,-23.926,0.000
1621215158.171,-8.301,-39.551,-52.734,-15.625,0.000
1621215158.175,-3.906,-31.738,-45.410,-2.930,0.000
1621215158.179,-8.789,-21.484,-44.922,-10.742,0.000
1621215158.182,-1.465,-21.973,-37.598,-14.160,0.000
1621215158.186,-0.977,-20.996,-28.320,-0.488,0.000
1621215158.190,-11.719,-17.578,-38.086,-16.602,0.000
1621215158.194,-13.672,-20.996,-38.574,-25.879,0.000
1621215158.198,-15.137,-27.344,-34.668,-18.555,0.000
1621215158.202,-17.090,-30.762,-44.434,-25.391,0.000
1621215158.206,-25.391,-28.809,-46.875,-28.320,0.000
1621215158.210,-28.809,-27.344,-39.551,-20.508,0.000
1621215158.214,-24.902,-32.227,-44.922,-18.555,0.000
1621215158.218,-24.414,-39.551,-56.152,-16.113,0.000
1621215158.222,-20.996,-39.062,-59.570,-17.090,0.000
1621215158.225,-23.926,-32.227,-56.152,-20.020,0.000
1621215158.229,-22.949,-30.273,-47.363,-20.508,0.000
1621215158.233,-16.602,-28.809,-44.922,-21.484,0.000
1621215158.237,-10.742,-28.809,-53.711,-20.996,0.000
1621215158.241,-10.742,-32.715,-60.547,-19.043,0.000
1621215158.245,-14.160,-30.273,-59.570,-11.230,0.000
1621215158.249,-14.648,-25.391,-41.992,-14.648,0.000
1621215158.253,-12.207,-23.926,-41.504,-20.996,0.000
1621215158.257,-12.207,-23.926,-51.758,-14.648,0.000
1621215158.261,-20.020,-30.273,-44.434,-17.090,0.000
1621215158.265,-24.902,-33.691,-39.062,-12.207,0.000
1621215158.268,-24.902,-32.227,-34.180,-17.090,0.000
1621215158.272,-27.832,-33.203,-39.551,-27.344,0.000
1621215158.276,-21.973,-32.227,-38.086,-20.996,0.000
1621215158.280,-25.879,-32.715,-36.621,-25.879,0.000
1621215158.284,-28.320,-29.297,-50.293,-27.344,0.000
1621215158.288,-22.461,-29.785,-48.828,-26.855,0.000
1621215158.292,-21.484,-37.598,-39.062,-30.273,0.000
1621215158.296,-22.949,-30.762,-36.133,-24.414,0.000
1621215158.300,-18.066,-25.879,-44.922,-27.832,0.000
1621215158.304,-14.160,-26.367,-47.852,-26.855,0.000
1621215158.307,-21.973,-24.414,-43.945,-21.973,0.000
1621215158.311,-29.785,-28.320,-49.805,-27.344,0.000
1621215158.315,-32.715,-30.273,-48.828,-28.809,0.000
1621215158.319,-37.109,-29.785,-43.945,-27.832,0.000
1621215158.323,-45.410,-28.320,-48.828,-24.902,0.000
1621215158.327,-52.246,-30.273,-49.805,-31.250,0.000
1621215158.331,-50.293,-39.551,-48.828,-42.480,0.000
1621215158.335,-49.805,-37.598,-50.293,-44.434,0.000
1621215158.339,-39.551,-33.203,-49.805,-38.086,0.000
1621215158.343,-41.016,-34.668,-44.434,-30.762,0.000
1621215158.347,-45.410,-32.715,-42.969,-28.320,0.000
1621215158.350,-43.457,-37.109,-43.457,-33.691,0.000
1621215158.354,-36.621,-38.574,-39.062,-27.344,0.000
1621215158.358,-33.691,-35.645,-52.246,-19.531,0.000
1621215158.362,-34.180,-34.668,-64.941,-25.391,0.000
1621215158.366,-37.598,-33.203,-54.199,-33.203,0.000
1621215158.370,-44.922,-36.621,-36.133,-31.250,0.000
1621215158.374,-38.086,-37.109,-40.527,-21.973,0.000
1621215158.378,-32.715,-38.574,-42.969,-23.926,0.000
1621215158.382,-37.109,-39.062,-41.016,-26.367,0.000
1621215158.386,-36.133,-37.109,-52.246,-32.227,0.000
1621215158.390,-33.691,-37.109,-46.387,-25.391,0.000
1621215158.393,-32.715,-38.086,-34.668,-19.043,0.000
1621215158.397,-29.297,-38.086,-45.898,-23.926,0.000
1621215158.401,-18.555,-34.180,-65.430,-24.902,0.000
1621215158.405,-16.602,-32.715,-58.105,-26.855,0.000
1621215158.409,-11.719,-32.227,-42.969,-27.344,0.000
1621215158.413,-0.488,-29.785,-44.922,-29.297,0.000
1621215158.417,-14.648,-30.273,-48.340,-26.855,0.000
1621215158.421,-19.043,-28.320,-44.922,-23.926,0.000
1621215158.425,-24.414,-28.320,-45.410,-26.367,0.000
1621215158.429,-32.227,-31.250,-42.480,-27.344,0.000
1621215158.432,-24.902,-34.180,-36.621,-25.391,0.000
1621215158.436,-22.461,-34.180,-34.668,-24.414,0.000
1621215158.440,-16.113,-28.809,-33.691,-22.461,0.000
1621215158.444,-14.648,-33.691,-37.598,-25.879,0.000
1621215158.448,-20.508,-33.691,-42.480,-28.809,0.000
1621215158.452,-18.555,-29.785,-37.598,-14.648,0.000
1621215158.456,-10.254,-26.367,-28.809,0.977,0.000
1621215158.460,-10.742,-21.484,-38.574,-1.465,0.000
1621215158.464,-5.859,-19.531,-46.387,-5.859,0.000
1621215158.468,-3.418,-16.602,-32.227,-6.836,0.000
1621215158.472,-12.695,-15.625,-27.344,-12.695,0.000
1621215158.475,-5.371,-13.184,-23.926,-19.043,0.000
1621215158.479,-4.395,-13.184,-36.133,-22.461,0.000
1621215158.483,-11.230,-18.066,-45.898,-17.578,0.000
1621215158.487,-10.742,-20.996,-37.598,-16.113,0.000
1621215158.491,-14.160,-25.391,-37.598,-9.277,0.000
1621215158.495,-17.578,-31.250,-33.203,-2.930,0.000
1621215158.499,-18.555,-31.738,-23.438,-7.812,0.000
1621215158.503,-20.508,-34.180,-34.180,-16.113,0.000
1621215158.507,-16.113,-28.320,-46.387,-18.066,0.000
1621215158.511,-17.090,-19.043,-46.387,-20.996,0.000
1621215158.515,-13.672,-23.438,-46.387,-21.973,0.000
1621215158.518,-12.207,-28.809,-41.504,-27.344,0.000
1621215158.522,-15.137,-28.320,-40.527,-24.902,0.000
1621215158.526,-19.531,-29.297,-51.758,-21.484,0.000
1621215158.530,-25.391,-37.109,-50.293,-24.902,0.000
1621215158.534,-31.250,-35.156,-44.434,-28.809,0.000
1621215158.538,-32.715,-28.809,-46.387,-27.344,0.000
1621215158.542,-25.391,-33.691,-37.109,-21.973,0.000
1621215158.546,-27.344,-37.598,-36.621,-25.391,0.000
1621215158.550,-27.832,-31.250,-42.480,-32.227,0.000
1621215158.554,-25.391,-29.785,-35.645,-31.738,0.000
1621215158.557,-22.461,-32.227,-39.062,-28.809,0.000
1621215158.561,-15.625,-30.273,-41.504,-28.809,0.000
1621215158.565,-17.578,-27.344,-36.621,-26.367,0.000
1621215158.569,-17.090,-24.414,-33.203,-12.695,0.000
1621215158.573,-16.602,-27.832,-34.180,-9.766,0.000
1621215158.577,-22.949,-29.785,-46.875,-17.578,0.000
1621215158.581,-20.020,-25.391,-40.527,-16.113,0.000
1621215158.585,-19.043,-22.461,-35.156,-10.742,0.000
1621215158.589,-22.949,-24.414,-36.621,-19.531,0.000
1621215158.593,-22.461,-27.832,-37.598,-29.297,0.000
1621215158.597,-18.555,-30.273,-47.363,-27.344,0.000
1621215158.600,-21.973,-27.344,-37.598,-14.160,0.000
1621215158.604,-35.645,-33.691,-25.391,-15.625,0.000
1621215158.608,-32.715,-33.203,-16.113,-21.484,0.000
1621215158.612,-29.785,-30.273,-22.949,-27.344,0.000
1621215158.616,-40.527,-37.598,-35.156,-38.086,0.000
1621215158.620,-39.062,-34.668,-36.621,-29.297,0.000
1621215158.624,-34.180,-35.156,-36.621,-32.227,0.000
1621215158.628,-40.039,-41.016,-36.133,-35.156,0.000
1621215158.632,-48.828,-43.945,-44.434,-31.250,0.000
1621215158.636,-42.969,-41.504,-42.969,-33.203,0.000
1621215158.640,-40.527,-40.039,-39.062,-40.039,0.000
1621215158.643,-42.969,-38.086,-44.922,-45.898,0.000
1621215158.647,-36.621,-39.551,-42.969,-46.875,0.000
1621215158.651,-34.668,-39.062,-31.250,-35.645,0.000
1621215158.655,-31.250,-39.062,-39.062,-31.738,0.000
1621215158.659,-24.902,-35.645,-45.410,-22.461,0.000
1621215158.663,-23.926,-29.785,-31.738,-19.043,0.000
1621215158.667,-26.367,-33.203,-33.203,-35.645,0.000
1621215158.671,-32.227,-33.691,-40.039,-29.785,0.000
1621215158.675,-30.273,-34.180,-48.828,-31.250,0.000
1621215158.679,-31.738,-35.156,-61.035,-36.133,0.000
1621215158.682,-35.156,-32.227,-46.875,-40.527,0.000
1621215158.686,-32.715,-27.832,-30.762,-46.387,0.000
1621215158.690,-33.203,-33.203,-34.668,-41.992,0.000
1621215158.694,-35.156,-30.762,-40.039,-39.551,0.000
1621215158.698,-32.227,-26.367,-37.598,-40.039,0.000
1621215158.702,-25.391,-32.715,-32.227,-35.645,0.000
1621215158.706,-20.020,-33.691,-29.297,-23.438,0.000
1621215158.710,-19.531,-34.180,-28.809,-20.996,0.000
1621215158.714,-27.344,-34.668,-30.762,-22.461,0.000
1621215158.718,-28.320,-37.109,-46.387,-21.484,0.000
1621215158.722,-25.391,-35.156,-46.387,-16.113,0.000
1621215158.725,-22.949,-30.273,-39.551,-13.672,0.000
1621215158.729,-29.785,-28.320,-44.434,-25.879,0.000
1621215158.733,-29.785,-28.809,-36.133,-32.227,0.000
1621215158.737,-20.508,-29.785,-33.203,-28.809,0.000
1621215158.741,-24.902,-28.320,-41.992,-28.320,0.000
1621215158.745,-32.227,-32.715,-50.781,-33.691,0.000
1621215158.749,-34.668,-35.156,-47.363,-38.574,0.000
1621215158.753,-27.344,-33.203,-41.504,-34.180,0.000
1621215158.757,-21.484,-30.273,-37.598,-26.367,0.000
1621215158.761,-26.855,-28.320,-39.551,-39.062,0.000
1621215158.765,-26.367,-33.203,-45.898,-43.945,0.000
1621215158.768,-33.203,-34.180,-34.668,-29.297,0.000
1621215158.772,-35.645,-30.273,-31.738,-31.250,0.000
1621215158.776,-27.344,-32.715,-33.203,-30.273,0.000
1621215158.780,-19.531,-33.691,-30.273,-33.203,0.000
1621215158.784,-18.555,-32.227,-33.203,-27.344,0.000
1621215158.788,-19.531,-29.297,-36.621,-13.184,0.000
1621215158.792,-21.973,-25.391,-32.715,-19.043,0.000
1621215158.796,-31.738,-29.785,-45.898,-30.273,0.000
1621215158.800,-25.391,-31.250,-59.082,-29.297,0.000
1621215158.804,-17.578,-28.809,-44.434,-33.691,0.000
1621215158.807,-18.555,-30.273,-33.203,-40.039,0.000
1621215158.811,-33.691,-35.645,-42.969,-34.180,0.000
1621215158.815,-36.621,-38.086,-54.199,-41.504,0.000
1621215158.819,-31.250,-38.086,-41.504,-35.156,0.000
1621215158.823,-34.180,-35.156,-33.691,-22.461,0.000
1621215158.827,-22.949,-34.180,-30.762,-20.508,0.000
1621215158.831,-20.996,-36.621,-34.180,-13.672,0.000
1621215158.835,-27.832,-37.598,-47.363,-19.531,0.000
1621215158.839,-31.250,-38.574,-39.062,-18.555,0.000
1621215158.843,-27.832,-38.574,-35.645,-20.996,0.000
1621215158.847,-27.832,-36.133,-34.668,-26.855,0.000
1621215158.850,-31.738,-32.715,-36.133,-25.391,0.000
1621215158.854,-31.738,-34.668,-47.852,-24.414,0.000
1621215158.858,-30.273,-32.227,-49.316,-24.902,0.000
1621215158.862,-32.227,-29.297,-47.852,-34.180,0.000
1621215158.866,-34.668,-28.809,-51.758,-39.062,0.000
1621215158.870,-29.785,-30.762,-44.922,-30.762,0.000
1621215158.874,-18.066,-30.762,-33.203,-21.484,0.000
1621215158.878,-13.672,-30.762,-34.668,-18.066,0.000
1621215158.882,-15.625,-31.250,-45.410,-14.648,0.000
1621215158.886,-20.020,-32.227,-49.805,-22.949,0.000
1621215158.890,-20.508,-39.062,-46.875,-28.320,0.000
1621215158.893,-16.602,-39.062,-43.457,-27.832,0.000
1621215158.897,-14.648,-31.738,-37.598,-35.156,0.000
1621215158.901,-7.324,-31.250,-37.109,-34.180,0.000
1621215158.905,-11.719,-30.762,-36.133,-11.719,0.000
1621215158.909,-11.719,-28.809,-38.086,-8.301,0.000
1621215158.913,-10.254,-28.809,-35.645,-11.230,0.000
1621215158.917,-14.648,-29.297,-33.203,-15.137,0.000
1621215158.921,-18.066,-28.809,-38.574,-23.926,0.000
1621215158.925,-24.414,-27.832,-38.574,-21.484,0.000
1621215158.929,-23.926,-25.391,-37.109,-30.273,0.000
1621215158.932,-26.367,-28.320,-38.574,-29.785,0.000
1621215158.936,-27.832,-26.855,-40.527,-20.020,0.000
1621215158.940,-25.879,-28.809,-38.574,-20.508,0.000
1621215158.944,-30.273,-34.180,-29.297,-22.461,0.000
1621215158.948,-34.668,-33.691,-30.762,-18.066,0.000
1621215158.952,-25.879,-31.250,-35.156,-15.137,0.000
1621215158.956,-23.926,-29.297,-40.527,-17.578,0.000
1621215158.960,-25.879,-30.273,-57.129,-15.137,0.000
1621215158.964,-21.484,-34.180,-61.523,-20.020,0.000
1621215158.968,-19.043,-37.109,-54.688,-17.578,0.000
1621215158.972,-26.367,-35.645,-51.270,-17.578,0.000
1621215158.975,-30.273,-28.320,-51.270,-23.926,0.000
1621215158.979,-27.832,-19.043,-38.574,-23.926,0.000
1621215158.983,-27.344,-15.137,-33.691,-20.508,0.000
1621215158.987,-31.738,-23.438,-43.945,-19.043,0.000
1621215158.991,-33.691,-26.855,-48.828,-22.949,0.000
1621215158.995,-31.250,-27.832,-41.992,-22.461,0.000
1621215158.999,-33.691,-28.809,-33.203,-22.949,0.000
1621215159.003,-36.621,-26.855,-36.621,-25.391,0.000
1621215159.007,-30.273,-25.879,-41.992,-20.020,0.000
1621215159.011,-25.391,-25.879,-42.969,-27.344,0.000
1621215159.015,-28.809,-31.250,-41.992,-31.738,0.000
1621215159.018,-28.809,-37.598,-39.551,-26.367,0.000
1621215159.022,-28.809,-35.645,-38.574,-28.809,0.000
1621215159.026,-25.879,-30.273,-41.992,-29.785,0.000
1621215159.030,-29.785,-28.320,-47.852,-32.715,0.000
1621215159.034,-34.668,-32.227,-48.828,-33.691,0.000
1621215159.038,-38.574,-33.203,-48.340,-38.086,0.000
1621215159.042,-41.992,-30.273,-45.410,-41.016,0.000
1621215159.046,-46.875,-36.133,-42.480,-45.898,0.000
1621215159.050,-56.641,-37.109,-47.852,-54.199,0.000
1621215159.054,-58.594,-33.203,-51.758,-53.223,0.000
1621215159.057,-57.129,-32.715,-46.387,-60.059,0.000
1621215159.061,-60.059,-31.250,-44.922,-71.777,0.000
1621215159.065,-74.219,-28.809,-44.434,-77.637,0.000
1621215159.069,-81.055,-25.391,-38.086,-82.520,0.000
1621215159.073,-82.031,-23.438,-32.227,-81.055,0.000
1621215159.077,-93.750,-26.855,-32.227,-93.750,0.000
1621215159.081,-109.375,-31.250,-33.203,-108.887,0.000
1621215159.085,-114.258,-29.785,-27.832,-107.422,0.000
1621215159.089,-115.723,-28.809,-21.973,-113.770,0.000
1621215159.093,-126.465,-30.273,-29.785,-134.766,0.000
1621215159.097,-140.625,-33.203,-26.367,-142.578,0.000
1621215159.100,-147.461,-31.250,-12.207,-137.695,0.000
1621215159.104,-154.297,-23.438,-27.344,-151.855,0.000
1621215159.108,-167.480,-25.879,-34.668,-179.199,0.000
1621215159.112,-186.035,-23.926,-33.203,-191.895,0.000
1621215159.116,-195.312,-22.461,-36.621,-186.523,0.000
1621215159.120,-199.219,-28.809,-50.781,-186.523,0.000
1621215159.124,-202.637,-39.551,-47.852,-184.570,0.000
1621215159.128,-200.195,-39.551,-13.184,-179.199,0.000
1621215159.132,-199.707,-33.691,-17.578,-185.547,0.000
1621215159.136,-194.824,-34.180,-37.109,-183.105,0.000
1621215159.140,-187.500,-37.109,-21.484,-171.387,0.000
1621215159.143,-181.641,-36.133,-40.527,-159.668,0.000
1621215159.147,-174.805,-33.203,-34.180,-160.645,0.000
1621215159.151,-166.504,-27.344,-6.348,-151.855,0.000
1621215159.155,-161.621,-35.156,-24.414,-140.137,0.000
1621215159.159,-148.438,-42.969,-23.438,-136.719,0.000
1621215159.163,-126.953,-40.527,-11.230,-119.629,0.000
1621215159.167,-112.793,-38.086,-13.184,-108.398,0.000
1621215159.171,-98.145,-38.574,-25.879,-85.449,0.000
1621215159.175,-79.102,-37.598,-38.086,-54.199,0.000
1621215159.179,-66.895,-34.668,-36.621,-60.547,0.000
1621215159.182,-63.477,-32.715,-41.016,-62.012,0.000
1621215159.186,-58.594,-35.156,-52.246,-55.664,0.000
1621215159.190,-45.410,-40.039,-52.246,-41.504,0.000
1621215159.194,-42.480,-41.992,-55.176,-29.785,0.000
1621215159.198,-41.504,-37.598,-62.012,-29.785,0.000
1621215159.202,-29.297,-30.762,-50.293,-11.719,0.000
1621215159.206,-6.348,-32.715,-51.270,9.766,0.000
1621215159.210,0.488,-35.645,-56.641,9.766,0.000
1621215159.214,4.883,-30.273,-51.758,25.879,0.000
1621215159.218,18.066,-25.879,-49.316,37.109,0.000
1621215159.222,16.602,-29.785,-62.988,34.668,0.000
1621215159.225,19.531,-34.668,-68.359,45.898,0.000
1621215159.229,32.227,-34.180,-55.176,51.758,0.000
1621215159.233,30.762,-33.203,-49.316,43.945,0.000
1621215159.237,29.297,-34.668,-54.688,45.898,0.000
1621215159.241,39.551,-32.715,-54.688,52.246,0.000
1621215159.245,40.527,-30.762,-49.316,50.293,0.000
1621215159.249,43.457,-34.668,-55.176,46.387,0.000
1621215159.253,51.758,-26.367,-59.570,51.270,0.000
1621215159.257,46.875,-24.414,-56.152,59.082,0.000
1621215159.261,44.434,-27.344,-48.340,52.734,0.000
1621215159.265,48.340,-25.879,-55.664,55.664,0.000
1621215159.268,46.875,-28.320,-60.547,63.477,0.000
1621215159.272,45.410,-26.855,-49.805,62.500,0.000
1621215159.276,42.480,-25.879,-38.086,47.852,0.000
1621215159.280,48.828,-31.738,-36.133,44.922,0.000
1621215159.284,49.316,-35.156,-40.039,46.387,0.000
1621215159.288,49.316,-27.832,-36.133,44.434,0.000
1621215159.292,49.805,-21.973,-34.668,44.922,0.000
1621215159.296,43.457,-30.273,-36.621,30.273,0.000
1621215159.300,40.039,-36.621,-33.691,29.785,0.000
1621215159.304,29.297,-36.621,-51.758,38.574,0.000
1621215159.307,21.973,-34.668,-61.035,27.344,0.000
1621215159.311,25.879,-34.668,-46.875,34.668,0.000
1621215159.315,22.949,-33.691,-43.945,36.133,0.000
1621215159.319,19.531,-34.180,-49.316,29.297,0.000
1621215159.323,22.461,-37.598,-41.992,36.621,0.000
1621215159.327,22.461,-36.621,-40.527,29.785,0.000
1621215159.331,17.578,-32.715,-53.711,22.949,0.000
1621215159.335,15.625,-31.250,-55.664,25.391,0.000
1621215159.339,27.344,-30.762,-49.316,25.391,0.000
1621215159.343,30.762,-32.227,-51.758,30.273,0.000
1621215159.347,30.273,-31.250,-47.363,27.832,0.000
1621215159.350,29.785,-29.297,-39.062,18.555,0.000
1621215159.354,25.879,-28.320,-51.758,29.297,0.000
1621215159.358,26.855,-27.832,-52.734,27.344,0.000
1621215159.362,28.320,-27.344,-54.199,17.578,0.000
1621215159.366,35.156,-25.391,-54.688,19.043,0.000
1621215159.370,40.039,-25.391,-41.504,21.973,0.000
1621215159.374,37.109,-27.344,-42.969,29.785,0.000
1621215159.378,31.738,-26.367,-50.293,22.949,0.000
1621215159.382,29.785,-21.973,-46.875,15.137,0.000
1621215159.386,33.691,-17.090,-41.016,21.484,0.000
1621215159.390,32.715,-24.414,-42.480,18.066,0.000
1621215159.393,30.273,-30.762,-42.969,12.695,0.000
1621215159.397,22.461,-29.297,-43.945,13.672,0.000
1621215159.401,17.578,-33.691,-50.781,13.672,0.000
1621215159.405,18.555,-30.762,-55.176,15.625,0.000
1621215159.409,22.461,-28.809,-54.688,16.113,0.000
1621215159.413,24.902,-32.227,-48.828,17.090,0.000
1621215159.417,32.227,-31.738,-46.875,18.066,0.000
1621215159.421,34.180,-28.809,-42.480,24.414,0.000
1621215159.425,22.461,-28.320,-37.109,30.762,0.000
1621215159.429,19.043,-32.715,-34.668,29.785,0.000
1621215159.432,17.090,-31.250,-32.227,20.996,0.000
1621215159.436,20.996,-29.785,-41.016,18.066,0.000
1621215159.440,22.461,-29.785,-39.551,16.602,0.000
1621215159.444,15.625,-27.344,-31.250,17.090,0.000
1621215159.448,10.742,-32.227,-24.902,16.602,0.000
1621215159.452,12.207,-35.645,-25.879,13.672,0.000
1621215159.456,13.184,-32.715,-36.621,10.254,0.000
1621215159.460,4.883,-30.762,-35.645,0.488,0.000
1621215159.464,-2.441,-34.180,-33.203,-11.230,0.000
1621215159.468,0.000,-30.273,-42.969,-5.859,0.000
1621215159.472,2.930,-29.297,-54.199,-0.977,0.000
1621215159.475,7.324,-29.297,-37.598,0.488,0.000
1621215159.479,-1.953,-26.855,-28.320,-10.742,0.000
1621215159.483,-8.789,-29.785,-26.855,-18.066,0.000
1621215159.487,0.977,-25.391,-33.691,-15.137,0.000
1621215159.491,0.488,-22.949,-30.762,-7.812,0.000
1621215159.495,-6.836,-24.902,-20.020,-3.906,0.000
1621215159.499,-2.441,-23.926,-26.367,-13.672,0.000
1621215159.503,6.836,-26.367,-31.250,-8.789,0.000
1621215159.507,6.836,-29.297,-29.785,-2.930,0.000
1621215159.511,2.441,-30.273,-26.855,-17.090,0.000
1621215159.515,-1.953,-27.832,-21.973,-16.113,0.000
1621215159.518,-0.977,-26.367,-26.855,-2.930,0.000
1621215159.522,-4.395,-35.156,-36.621,0.488,0.000
1621215159.526,-14.648,-41.016,-25.391,-4.395,0.000
1621215159.530,-17.578,-37.598,-31.250,-9.277,0.000
1621215159.534,-27.344,-35.156,-41.504,-13.184,0.000
1621215159.538,-31.738,-33.203,-33.203,-12.207,0.000
1621215159.542,-22.461,-31.250,-27.344,-27.344,0.000
1621215159.546,-20.508,-28.320,-29.785,-32.715,0.000
1621215159.550,-22.949,-31.250,-31.250,-24.902,0.000
1621215159.554,-20.508,-36.133,-27.832,-34.180,0.000
1621215159.557,-13.672,-31.738,-43.945,-38.086,0.000
1621215159.561,-11.719,-30.273,-52.734,-32.715,0.000
1621215159.565,-14.648,-32.227,-43.457,-22.949,0.000
1621215159.569,-17.578,-25.391,-26.855,-23.926,0.000
1621215159.573,-24.902,-26.367,-21.484,-22.949,0.000
1621215159.577,-20.996,-36.621,-27.344,-12.695,0.000
1621215159.581,-15.625,-38.574,-25.879,-21.484,0.000
1621215159.585,-22.949,-40.039,-29.785,-24.902,0.000
1621215159.589,-22.949,-46.387,-36.133,-18.066,0.000
1621215159.593,-20.020,-43.457,-38.086,-22.461,0.000
1621215159.597,-23.926,-28.809,-34.668,-13.672,0.000
1621215159.600,-16.113,-20.996,-33.691,-18.066,0.000
1621215159.604,-20.508,-41.016,-46.387,-26.367,0.000
1621215159.608,-34.668,-47.852,-44.922,-22.461,0.000
1621215159.612,-29.297,-36.621,-34.668,-22.949,0.000
1621215159.616,-29.785,-33.691,-39.551,-25.879,0.000
1621215159.620,-38.086,-33.691,-42.480,-29.785,0.000
1621215159.624,-31.250,-36.133,-43.457,-27.344,0.000
1621215159.628,-24.414,-40.039,-30.762,-28.809,0.000
1621215159.632,-27.832,-46.875,-31.738,-30.273,0.000
1621215159.636,-32.715,-47.363,-35.645,-37.109,0.000
1621215159.640,-40.527,-39.062,-33.691,-40.527,0.000
1621215159.643,-44.434,-36.133,-47.852,-39.062,0.000
1621215159.647,-40.527,-39.062,-48.340,-37.109,0.000
1621215159.651,-35.156,-34.180,-34.668,-40.527,0.000
1621215159.655,-37.598,-34.180,-35.156,-35.645,0.000
1621215159.659,-38.574,-38.574,-35.645,-31.250,0.000
1621215159.663,-41.016,-37.598,-36.621,-44.922,0.000
1621215159.667,-37.598,-34.180,-39.062,-41.016,0.000
1621215159.671,-34.180,-30.273,-39.062,-34.668,0.000
1621215159.675,-35.645,-26.367,-37.598,-35.156,0.000
1621215159.679,-32.715,-27.344,-36.133,-33.203,0.000
1621215159.682,-29.297,-27.344,-41.016,-35.156,0.000
1621215159.686,-27.832,-24.902,-39.062,-22.949,0.000
1621215159.690,-25.391,-24.902,-36.621,-30.762,0.000
1621215159.694,-32.227,-28.809,-43.945,-37.598,0.000
1621215159.698,-36.621,-31.738,-44.922,-30.273,0.000
1621215159.702,-34.668,-31.250,-34.668,-23.926,0.000
1621215159.706,-32.227,-33.691,-39.062,-21.973,0.000
1621215159.710,-34.180,-31.738,-43.457,-18.555,0.000
1621215159.714,-33.691,-32.227,-40.527,-20.996,0.000
1621215159.718,-31.738,-29.297,-40.527,-40.527,0.000
1621215159.722,-32.227,-22.949,-33.691,-33.203,0.000
1621215159.725,-27.832,-27.344,-31.738,-29.297,0.000
1621215159.729,-30.762,-31.738,-43.457,-37.109,0.000
1621215159.733,-37.598,-26.855,-45.410,-44.922,0.000
1621215159.737,-30.273,-25.391,-40.039,-41.992,0.000
1621215159.741,-27.832,-23.926,-35.645,-28.320,0.000
1621215159.745,-33.203,-25.879,-38.086,-35.645,0.000
1621215159.749,-33.691,-29.297,-41.992,-44.434,0.000
1621215159.753,-22.949,-25.879,-42.969,-26.855,0.000
1621215159.757,-13.672,-26.855,-50.781,-22.949,0.000
1621215159.761,-25.879,-31.738,-44.922,-36.621,0.000
1621215159.765,-35.645,-33.691,-37.109,-34.668,0.000
1621215159.768,-30.273,-27.832,-41.504,-30.762,0.000
1621215159.772,-20.508,-24.414,-41.504,-30.762,0.000
1621215159.776,-18.555,-31.738,-36.133,-37.109,0.000
1621215159.780,-21.973,-31.250,-38.574,-43.457,0.000
1621215159.784,-32.227,-29.297,-45.898,-35.645,0.000
1621215159.788,-31.250,-29.297,-41.016,-23.438,0.000
1621215159.792,-25.879,-25.879,-32.715,-27.344,0.000
1621215159.796,-34.668,-26.855,-30.273,-40.039,0.000
1621215159.800,-29.785,-29.785,-45.898,-39.062,0.000
1621215159.804,-24.902,-31.738,-49.805,-34.180,0.000
1621215159.807,-32.227,-32.227,-44.922,-40.527,0.000
1621215159.811,-37.109,-33.203,-44.922,-34.180,0.000
1621215159.815,-36.621,-35.645,-41.016,-33.203,0.000
1621215159.819,-31.738,-36.621,-39.062,-26.367,0.000
1621215159.823,-32.227,-32.227,-36.621,-22.461,0.000
1621215159.827,-35.156,-27.832,-37.598,-28.809,0.000
1621215159.831,-27.344,-29.297,-35.156,-27.832,0.000
1621215159.835,-12.207,-30.273,-34.180,-22.949,0.000
1621215159.839,-17.578,-30.762,-33.203,-25.879,0.000
1621215159.843,-28.809,-25.879,-41.016,-36.133,0.000
1621215159.847,-28.320,-21.973,-41.504,-37.598,0.000
1621215159.850,-37.598,-28.320,-35.645,-39.062,0.000
1621215159.854,-50.293,-32.227,-47.363,-51.270,0.000
1621215159.858,-45.898,-33.203,-46.387,-54.688,0.000
1621215159.862,-46.387,-31.738,-36.621,-52.246,0.000
1621215159.866,-49.316,-33.691,-37.598,-51.270,0.000
1621215159.870,-47.852,-38.086,-43.945,-46.387,0.000
1621215159.874,-50.293,-39.551,-53.223,-44.922,0.000
1621215159.878,-41.504,-38.574,-41.504,-51.270,0.000
1621215159.882,-41.992,-40.527,-32.227,-45.898,0.000
1621215159.886,-41.992,-39.062,-32.715,-31.250,0.000
1621215159.890,-29.297,-35.156,-37.109,-26.855,0.000
1621215159.893,-27.832,-34.180,-43.457,-29.297,0.000
1621215159.897,-30.762,-34.668,-39.551,-30.273,0.000
1621215159.901,-21.973,-31.738,-33.691,-28.809,0.000
1621215159.905,-30.273,-28.320,-40.527,-26.855,0.000
1621215159.909,-37.598,-28.320,-43.457,-25.391,0.000
1621215159.913,-29.785,-27.344,-36.621,-33.691,0.000
1621215159.917,-27.344,-24.902,-34.668,-37.598,0.000
1621215159.921,-18.066,-24.414,-32.227,-27.344,0.000
1621215159.925,-9.277,-24.414,-33.203,-16.602,0.000
1621215159.929,-14.648,-25.391,-40.039,-27.832,0.000
1621215159.933,-26.367,-25.391,-49.805,-52.734,0.000
1621215159.936,-32.715,-28.320,-54.199,-46.875,0.000
1621215159.940,-33.203,-32.227,-50.781,-41.016,0.000
1621215159.944,-34.668,-29.785,-41.016,-51.270,0.000
1621215159.948,-41.504,-29.785,-31.738,-51.270,0.000
1621215159.952,-48.340,-35.645,-31.738,-37.598,0.000
1621215159.956,-48.828,-33.691,-33.691,-26.855,0.000
1621215159.960,-41.504,-32.715,-37.598,-34.180,0.000
1621215159.964,-37.109,-35.645,-39.062,-40.039,0.000
1621215159.968,-37.598,-35.156,-35.645,-39.062,0.000
1621215159.972,-34.180,-29.785,-40.527,-32.715,0.000
1621215159.975,-15.137,-29.297,-50.781,-27.344,0.000
1621215159.979,-19.043,-31.250,-48.340,-25.879,0.000
1621215159.983,-21.973,-36.133,-32.715,-31.250,0.000
1621215159.987,-14.160,-37.598,-30.273,-31.250,0.000
1621215159.991,-24.414,-31.250,-32.227,-28.809,0.000
1621215159.995,-19.531,-31.250,-29.297,-30.273,0.000
1621215159.999,-17.090,-35.156,-24.414,-19.531,0.000
1621215160.003,-21.973,-36.133,-26.367,-25.879,0.000
1621215160.007,-25.879,-36.133,-35.156,-37.598,0.000
1621215160.011,-27.832,-34.180,-23.926,-28.809,0.000
1621215160.015,-27.344,-34.180,-20.996,-29.785,0.000
1621215160.018,-29.297,-35.156,-37.598,-28.809,0.000
1621215160.022,-30.273,-32.227,-41.992,-20.508,0.000
1621215160.026,-33.203,-35.645,-36.621,-19.043,0.000
1621215160.030,-33.691,-39.551,-32.715,-26.367,0.000
1621215160.034,-30.762,-37.109,-34.668,-31.250,0.000
1621215160.038,-27.832,-32.227,-35.645,-24.902,0.000
1621215160.042,-20.996,-32.227,-41.992,-20.020,0.000
1621215160.046,-15.137,-33.203,-48.340,-30.273,0.000
1621215160.050,-16.113,-32.715,-46.875,-32.227,0.000
1621215160.054,-22.461,-31.250,-48.828,-30.762,0.000
1621215160.057,-21.484,-32.227,-47.363,-24.902,0.000
1621215160.061,-22.461,-38.086,-46.875,-20.508,0.000
1621215160.065,-23.438,-35.156,-49.316,-35.645,0.000
1621215160.069,-29.297,-29.785,-42.480,-40.527,0.000
1621215160.073,-23.438,-30.273,-29.785,-22.949,0.000
1621215160.077,-20.996,-24.414,-29.297,-28.809,0.000
1621215160.081,-36.133,-23.438,-38.574,-55.664,0.000
1621215160.085,-27.344,-28.320,-45.898,-39.062,0.000
1621215160.089,-20.020,-30.273,-42.969,-25.391,0.000
1621215160.093,-23.926,-30.273,-37.109,-37.598,0.000
1621215160.097,-17.578,-19.531,-35.645,-36.621,0.000
1621215160.100,-20.996,-17.090,-43.457,-32.227,0.000
1621215160.104,-12.207,-25.879,-48.828,-29.785,0.000
1621215160.108,-9.277,-26.855,-43.457,-19.043,0.000
1621215160.112,-22.949,-23.438,-40.039,-11.719,0.000
1621215160.116,-19.531,-26.367,-38.086,-19.043,0.000
1621215160.120,-11.719,-29.785,-32.227,-20.020,0.000
1621215160.124,-7.324,-27.832,-30.762,-10.254,0.000
1621215160.128,-9.277,-27.832,-33.203,-28.809,0.000
1621215160.132,-14.160,-27.344,-40.039,-43.945,0.000
1621215160.136,-20.020,-25.879,-49.316,-38.574,0.000
1621215160.140,-18.066,-31.738,-50.293,-39.062,0.000
1621215160.143,-19.531,-31.250,-44.922,-36.621,0.000
1621215160.147,-27.344,-30.762,-41.992,-34.180,0.000
1621215160.151,-19.531,-33.691,-38.086,-23.926,0.000
1621215160.155,-16.113,-30.273,-35.645,-11.719,0.000
1621215160.159,-20.020,-29.297,-44.434,-9.277,0.000
1621215160.163,-21.973,-32.227,-44.434,-23.438,0.000
1621215160.167,-22.461,-36.133,-42.480,-19.043,0.000
1621215160.171,-28.809,-34.180,-47.363,-15.137,0.000
1621215160.175,-37.598,-37.109,-49.316,-18.555,0.000
1621215160.179,-30.762,-36.133,-44.434,-18.066,0.000
1621215160.182,-25.879,-38.086,-41.504,-24.414,0.000
1621215160.186,-25.391,-42.480,-40.039,-24.414,0.000
1621215160.190,-26.367,-38.086,-43.457,-21.484,0.000
1621215160.194,-28.320,-34.180,-44.434,-14.648,0.000
1621215160.198,-24.414,-35.156,-39.551,-10.254,0.000
1621215160.202,-23.926,-35.156,-31.738,-8.301,0.000
1621215160.206,-22.949,-36.133,-37.109,-15.625,0.000
1621215160.210,-6.836,-38.086,-45.410,-20.020,0.000
1621215160.214,-9.277,-41.016,-43.945,-17.578,0.000
1621215160.218,-27.344,-45.410,-43.457,-17.578,0.000
1621215160.222,-27.832,-43.945,-40.039,-17.578,0.000
1621215160.225,-23.926,-37.109,-38.574,-21.484,0.000
1621215160.229,-25.391,-31.250,-50.781,-36.133,0.000
1621215160.233,-26.367,-33.691,-51.270,-37.598,0.000
1621215160.237,-24.902,-32.715,-41.016,-26.367,0.000
1621215160.241,-32.227,-34.668,-40.527,-20.020,0.000
1621215160.245,-23.926,-31.250,-45.898,-27.344,0.000
1621215160.249,-10.254,-29.785,-41.992,-29.785,0.000
1621215160.253,-25.879,-37.109,-41.504,-21.973,0.000
1621215160.257,-30.762,-38.086,-40.527,-14.648,0.000
1621215160.261,-19.531,-28.809,-39.551,-13.184,0.000
1621215160.265,-22.949,-22.949,-47.363,-20.508,0.000
1621215160.268,-26.367,-21.973,-44.434,-18.066,0.000
1621215160.272,-28.320,-25.879,-40.039,-18.066,0.000
1621215160.276,-33.691,-31.738,-39.062,-20.996,0.000
1621215160.280,-21.484,-31.738,-36.133,-19.531,0.000
1621215160.284,-10.254,-30.273,-32.715,-10.742,0.000
1621215160.288,-7.812,-31.738,-41.016,-6.348,0.000
1621215160.292,-13.672,-34.180,-44.922,-6.348,0.000
1621215160.296,-17.090,-35.156,-42.969,-7.812,0.000
1621215160.300,-19.043,-35.645,-43.457,-16.602,0.000
1621215160.304,-24.414,-32.715,-41.992,-20.020,0.000
1621215160.308,-22.949,-32.715,-43.457,-14.648,0.000
1621215160.311,-22.461,-35.156,-37.109,-19.531,0.000
1621215160.315,-29.297,-35.156,-30.762,-21.484,0.000
1621215160.319,-24.414,-34.180,-35.645,-11.719,0.000
1621215160.323,-12.695,-34.668,-39.551,-17.090,0.000
1621215160.327,-16.113,-37.598,-40.039,-33.691,0.000
1621215160.331,-16.602,-36.621,-40.039,-31.250,0.000
1621215160.335,-30.273,-34.180,-41.016,-33.691,0.000
1621215160.339,-36.621,-33.691,-47.363,-32.227,0.000
1621215160.343,-32.227,-33.203,-47.852,-28.809,0.000
1621215160.347,-31.738,-35.156,-47.363,-34.180,0.000
1621215160.350,-27.832,-32.227,-44.434,-29.785,0.000
1621215160.354,-26.855,-32.715,-40.527,-18.555,0.000
1621215160.358,-32.227,-39.062,-40.039,-31.250,0.000
1621215160.362,-31.738,-41.504,-41.992,-38.574,0.000
1621215160.366,-30.762,-44.434,-47.852,-35.645,0.000
1621215160.370,-34.668,-43.457,-51.758,-29.297,0.000
1621215160.374,-25.879,-40.039,-49.316,-19.043,0.000
1621215160.378,-25.879,-34.668,-43.457,-31.250,0.000
1621215160.382,-25.391,-30.762,-39.551,-37.109,0.000
1621215160.386,-27.832,-33.691,-39.062,-32.715,0.000
1621215160.390,-34.668,-36.621,-36.621,-30.762,0.000
1621215160.393,-26.855,-36.133,-40.039,-22.949,0.000
1621215160.397,-33.203,-35.156,-41.504,-35.156,0.000
1621215160.401,-33.203,-36.133,-40.527,-42.480,0.000
1621215160.405,-16.113,-38.574,-41.992,-32.227,0.000
1621215160.409,-20.508,-37.598,-42.969,-24.902,0.000
1621215160.413,-35.645,-39.062,-41.016,-38.086,0.000
1621215160.417,-42.969,-39.062,-39.551,-48.340,0.000
1621215160.421,-40.527,-37.109,-44.922,-35.645,0.000
1621215160.425,-35.156,-38.574,-44.922,-24.414,0.000
1621215160.429,-38.574,-38.086,-35.645,-27.344,0.000
1621215160.432,-38.574,-40.527,-34.668,-29.297,0.000
1621215160.436,-26.855,-38.574,-36.621,-23.926,0.000
1621215160.440,-19.043,-33.691,-38.086,-31.738,0.000
1621215160.444,-23.926,-30.762,-41.504,-31.738,0.000
1621215160.448,-27.832,-26.367,-44.434,-26.855,0.000
1621215160.452,-25.879,-26.855,-43.945,-35.645,0.000
1621215160.456,-22.461,-25.391,-41.016,-37.598,0.000
1621215160.460,-17.578,-26.367,-42.969,-35.645,0.000
1621215160.464,-19.531,-31.738,-39.062,-30.273,0.000
1621215160.468,-25.879,-33.691,-32.715,-24.414,0.000
1621215160.472,-21.484,-32.227,-29.785,-33.691,0.000
1621215160.475,-16.113,-28.320,-32.715,-40.527,0.000
1621215160.479,-19.531,-30.273,-36.133,-26.367,0.000
1621215160.483,-20.996,-28.320,-34.668,-22.461,0.000
1621215160.487,-13.672,-26.367,-31.738,-16.602,0.000
1621215160.491,-19.531,-22.949,-37.109,-1.953,0.000
1621215160.495,-20.020,-18.066,-45.410,-6.836,0.000
1621215160.499,-20.020,-16.602,-43.945,-23.438,0.000
1621215160.503,-18.555,-21.973,-38.086,-28.809,0.000
1621215160.507,-10.742,-29.297,-43.457,-24.414,0.000
1621215160.511,-23.926,-29.297,-41.016,-26.855,0.000
1621215160.515,-35.645,-33.203,-38.086,-30.762,0.000
1621215160.518,-28.320,-34.668,-47.852,-22.461,0.000
1621215160.522,-23.926,-34.668,-44.922,-13.672,0.000
1621215160.526,-23.926,-40.527,-42.969,-15.137,0.000
1621215160.530,-18.555,-36.133,-41.016,-14.160,0.000
1621215160.534,-19.043,-33.691,-40.039,-12.207,0.000
1621215160.538,-33.691,-37.109,-41.504,-19.531,0.000
1621215160.542,-40.527,-35.156,-38.086,-32.715,0.000
1621215160.546,-29.297,-33.691,-40.039,-52.246,0.000
1621215160.550,-31.250,-31.250,-33.691,-48.340,0.000
1621215160.554,-33.203,-24.902,-38.086,-41.504,0.000
1621215160.558,-22.461,-25.879,-49.316,-34.180,0.000
1621215160.561,-12.207,-24.414,-47.363,-24.902,0.000
1621215160.565,-13.672,-22.461,-47.852,-17.578,0.000
1621215160.569,-33.203,-28.320,-48.828,-9.766,0.000
1621215160.573,-41.992,-32.227,-38.574,-24.902,0.000
1621215160.577,-32.715,-35.156,-39.062,-32.715,0.000
1621215160.581,-28.809,-37.598,-42.480,-24.902,0.000
1621215160.585,-28.809,-33.691,-40.527,-21.484,0.000
1621215160.589,-32.715,-32.227,-40.039,-22.949,0.000
1621215160.593,-38.086,-38.086,-40.039,-34.180,0.000
1621215160.597,-31.250,-39.062,-35.645,-34.668,0.000
1621215160.600,-30.762,-38.086,-34.180,-37.598,0.000
1621215160.604,-31.250,-31.250,-35.645,-30.273,0.000
1621215160.608,-32.227,-31.250,-37.598,-33.203,0.000
1621215160.612,-36.133,-41.016,-37.109,-53.711,0.000
1621215160.616,-30.273,-39.551,-39.062,-49.316,0.000
1621215160.620,-32.227,-36.133,-39.062,-38.574,0.000
1621215160.624,-41.504,-34.180,-42.480,-38.086,0.000
1621215160.628,-32.715,-35.645,-50.293,-37.598,0.000
1621215160.632,-26.367,-33.691,-45.410,-23.926,0.000
1621215160.636,-30.762,-28.320,-40.039,-30.762,0.000
1621215160.640,-21.973,-30.762,-37.598,-36.621,0.000
1621215160.643,-23.926,-32.227,-34.180,-26.855,0.000
1621215160.647,-31.250,-33.203,-39.551,-26.855,0.000
1621215160.651,-36.621,-34.180,-47.363,-32.715,0.000
1621215160.655,-33.691,-34.668,-46.387,-35.156,0.000
1621215160.659,-26.855,-33.203,-46.387,-32.715,0.000
1621215160.663,-30.762,-34.180,-43.457,-37.109,0.000
1621215160.667,-26.855,-30.273,-36.621,-41.504,0.000
1621215160.671,-29.785,-33.691,-43.457,-41.992,0.000
1621215160.675,-35.156,-39.062,-48.828,-36.621,0.000
1621215160.679,-28.809,-32.227,-46.875,-35.156,0.000
1621215160.683,-19.043,-19.531,-43.457,-28.809,0.000
1621215160.686,-24.414,-17.578,-39.551,-18.066,0.000
1621215160.690,-28.809,-26.367,-35.645,-23.926,0.000
1621215160.694,-28.320,-28.809,-38.574,-31.250,0.000
1621215160.698,-28.809,-24.414,-45.410,-27.344,0.000
1621215160.702,-23.438,-23.926,-47.363,-20.996,0.000
1621215160.706,-23.438,-29.297,-46.387,-6.348,0.000
1621215160.710,-21.484,-26.367,-49.316,-11.719,0.000
1621215160.714,-13.184,-22.949,-42.480,-21.973,0.000
1621215160.718,-15.137,-22.949,-40.039,-17.090,0.000
1621215160.722,-23.926,-22.949,-45.898,-14.648,0.000
1621215160.725,-21.484,-25.879,-47.852,-13.184,0.000
1621215160.729,-18.555,-26.367,-46.875,-29.297,0.000
1621215160.733,-15.625,-26.855,-48.340,-41.504,0.000
1621215160.737,-24.414,-25.391,-46.387,-25.879,0.000
1621215160.741,-41.016,-30.762,-37.109,-22.949,0.000
1621215160.745,-41.016,-38.574,-37.109,-40.527,0.000
1621215160.749,-32.715,-35.645,-38.574,-38.086,0.000
1621215160.753,-25.879,-33.203,-31.250,-30.762,0.000
1621215160.757,-26.855,-34.668,-35.645,-31.250,0.000
1621215160.761,-25.879,-34.668,-42.969,-28.809,0.000
1621215160.765,-16.602,-31.250,-36.621,-29.297,0.000
1621215160.768,-18.555,-29.785,-36.133,-36.133,0.000
1621215160.772,-26.367,-30.273,-41.992,-31.738,0.000
1621215160.776,-30.762,-26.367,-39.062,-21.973,0.000
1621215160.780,-25.879,-21.484,-37.109,-26.367,0.000
1621215160.784,-26.367,-23.926,-34.180,-21.484,0.000
1621215160.788,-34.668,-24.902,-38.086,-25.879,0.000
1621215160.792,-21.484,-22.949,-45.410,-23.926,0.000
1621215160.796,-13.672,-22.949,-42.969,-16.602,0.000
1621215160.800,-14.648,-21.484,-43.457,-26.855,0.000
1621215160.804,-17.090,-23.438,-43.457,-28.809,0.000
1621215160.807,-24.414,-25.879,-43.945,-30.273,0.000
1621215160.811,-26.855,-25.391,-43.457,-24.902,0.000
1621215160.815,-33.691,-22.949,-40.039,-25.391,0.000
1621215160.819,-39.551,-25.391,-44.922,-26.367,0.000
1621215160.823,-26.367,-28.320,-47.363,-22.949,0.000
1621215160.827,-13.672,-29.785,-41.992,-26.367,0.000
1621215160.831,-29.785,-32.227,-42.969,-35.645,0.000
1621215160.835,-32.227,-32.715,-43.945,-40.527,0.000
1621215160.839,-15.137,-35.156,-41.992,-47.363,0.000
1621215160.843,-12.695,-32.715,-40.039,-37.598,0.000
1621215160.847,-17.578,-33.691,-43.945,-25.391,0.000
1621215160.850,-21.973,-32.715,-42.969,-22.949,0.000
1621215160.854,-20.020,-34.180,-42.480,-29.785,0.000
1621215160.858,-16.602,-41.992,-38.574,-27.344,0.000
1621215160.862,-14.160,-39.551,-44.434,-20.508,0.000
1621215160.866,-14.648,-38.086,-59.570,-27.832,0.000
1621215160.870,-18.066,-37.598,-53.711,-21.973,0.000
1621215160.874,-16.602,-33.203,-47.363,-20.508,0.000
1621215160.878,-14.648,-33.691,-43.945,-23.926,0.000
1621215160.882,-21.484,-36.133,-36.621,-25.879,0.000
1621215160.886,-27.832,-34.668,-36.621,-25.391,0.000
1621215160.890,-22.949,-35.156,-35.645,-14.648,0.000
1621215160.893,-14.648,-32.715,-33.691,-20.996,0.000
1621215160.897,-20.996,-30.762,-36.621,-37.109,0.000
1621215160.901,-20.508,-32.227,-44.434,-35.156,0.000
1621215160.905,-21.973,-32.715,-49.316,-34.668,0.000
1621215160.909,-21.484,-32.227,-49.316,-36.133,0.000
1621215160.913,-22.461,-32.227,-42.969,-32.715,0.000
1621215160.917,-13.184,-33.203,-39.551,-30.273,0.000
1621215160.921,-1.465,-35.156,-42.480,-35.645,0.000
1621215160.925,-12.695,-34.180,-43.945,-36.133,0.000
1621215160.929,-14.648,-32.227,-42.480,-37.598,0.000
1621215160.933,-20.996,-30.762,-31.250,-33.203,0.000
1621215160.936,-24.414,-30.273,-39.551,-23.926,0.000
1621215160.940,-11.719,-30.273,-49.316,-22.949,0.000
1621215160.944,-15.137,-30.762,-39.062,-31.738,0.000
1621215160.948,-19.531,-34.668,-34.668,-32.715,0.000
1621215160.952,-21.973,-34.668,-42.480,-29.785,0.000
1621215160.956,-24.902,-34.180,-41.992,-32.227,0.000
1621215160.960,-24.902,-34.180,-36.133,-30.762,0.000
1621215160.964,-16.113,-31.738,-38.574,-29.297,0.000
1621215160.968,-14.160,-32.715,-37.109,-26.367,0.000
1621215160.972,-13.672,-33.203,-34.668,-22.949,0.000
1621215160.975,-17.090,-26.855,-36.133,-21.484,0.000
1621215160.979,-26.855,-25.879,-39.551,-27.344,0.000
1621215160.983,-22.949,-32.227,-42.480,-31.250,0.000
1621215160.987,-16.602,-32.227,-38.086,-23.926,0.000
1621215160.991,-19.531,-27.344,-28.320,-27.832,0.000
1621215160.995,-19.531,-24.414,-25.879,-37.109,0.000
1621215160.999,-22.949,-32.227,-43.945,-37.109,0.000
1621215161.003,-32.227,-33.203,-53.223,-36.133,0.000
1621215161.007,-33.203,-27.344,-40.039,-34.180,0.000
1621215161.011,-39.551,-34.180,-38.086,-44.922,0.000
1621215161.015,-35.645,-38.574,-36.621,-42.969,0.000
1621215161.018,-26.855,-39.551,-33.203,-38.574,0.000
1621215161.022,-31.250,-44.922,-36.621,-29.297,0.000
1621215161.026,-31.738,-42.969,-38.086,-24.902,0.000
1621215161.030,-35.645,-37.598,-35.645,-29.785,0.000
1621215161.034,-35.645,-38.086,-40.039,-28.320,0.000
1621215161.038,-27.832,-37.598,-42.969,-29.297,0.000
1621215161.042,-35.156,-41.016,-42.480,-27.344,0.000
1621215161.046,-40.527,-45.898,-47.852,-32.227,0.000
1621215161.050,-28.809,-45.410,-46.875,-31.250,0.000
1621215161.054,-12.695,-41.016,-42.969,-23.438,0.000
1621215161.058,-25.879,-35.645,-38.086,-12.695,0.000
1621215161.061,-34.180,-32.227,-37.109,-15.137,0.000
1621215161.065,-23.438,-33.691,-39.551,-25.879,0.000
1621215161.069,-25.391,-35.156,-47.852,-20.508,0.000
1621215161.073,-28.320,-31.738,-46.387,-19.043,0.000
1621215161.077,-31.738,-29.785,-35.645,-25.391,0.000
1621215161.081,-33.203,-31.250,-33.203,-23.438,0.000
1621215161.085,-29.297,-24.414,-34.668,-24.902,0.000
1621215161.089,-37.109,-24.902,-35.156,-28.320,0.000
1621215161.093,-29.785,-29.297,-31.250,-28.320,0.000
1621215161.097,-24.902,-29.785,-29.297,-25.879,0.000
1621215161.100,-31.738,-32.715,-32.227,-21.973,0.000
1621215161.104,-28.809,-32.227,-33.203,-29.785,0.000
1621215161.108,-24.414,-30.762,-33.203,-36.621,0.000
1621215161.112,-32.227,-29.785,-34.668,-34.668,0.000
1621215161.116,-28.809,-26.855,-39.062,-27.832,0.000
1621215161.120,-13.672,-27.344,-39.062,-24.414,0.000
1621215161.124,-23.438,-27.344,-39.062,-23.438,0.000
1621215161.128,-32.715,-29.785,-35.645,-21.484,0.000
1621215161.132,-30.273,-27.832,-35.645,-20.020,0.000
1621215161.136,-20.996,-25.391,-37.109,-15.137,0.000
1621215161.140,-14.160,-33.691,-38.086,-12.207,0.000
1621215161.143,-19.531,-35.156,-30.762,-18.066,0.000
1621215161.147,-23.926,-29.785,-32.227,-33.203,0.000
1621215161.151,-27.832,-25.879,-49.805,-38.574,0.000
1621215161.155,-21.484,-28.320,-51.758,-33.203,0.000
1621215161.159,-23.438,-34.668,-43.945,-30.273,0.000
1621215161.163,-38.574,-36.621,-41.016,-36.133,0.000
1621215161.167,-43.457,-36.621,-39.551,-40.039,0.000
1621215161.171,-41.992,-35.645,-36.621,-40.039,0.000
1621215161.175,-36.133,-38.086,-32.227,-42.480,0.000
1621215161.179,-45.410,-42.480,-28.320,-41.504,0.000
1621215161.183,-44.922,-42.480,-35.645,-35.645,0.000
1621215161.186,-31.250,-40.527,-44.434,-27.344,0.000
1621215161.190,-23.926,-38.086,-41.016,-27.832,0.000
1621215161.194,-28.320,-32.227,-38.574,-29.785,0.000
1621215161.198,-24.414,-26.367,-37.598,-32.227,0.000
1621215161.202,-16.602,-26.855,-40.039,-24.902,0.000
1621215161.206,-25.391,-25.391,-41.504,-20.996,0.000
1621215161.210,-33.691,-21.484,-42.969,-22.949,0.000
1621215161.214,-32.227,-23.438,-45.410,-20.020,0.000
1621215161.218,-31.738,-25.879,-42.480,-19.531,0.000
1621215161.222,-31.250,-29.297,-47.363,-22.461,0.000
1621215161.225,-28.320,-33.691,-44.434,-25.879,0.000
1621215161.229,-20.508,-34.180,-38.574,-24.414,0.000
1621215161.233,-19.531,-31.250,-38.574,-30.273,0.000
1621215161.237,-26.367,-31.738,-40.039,-36.133,0.000
1621215161.241,-26.367,-30.762,-45.898,-32.715,0.000
1621215161.245,-29.785,-28.320,-44.922,-27.832,0.000
1621215161.249,-34.180,-31.738,-40.039,-35.156,0.000
1621215161.253,-42.480,-33.203,-36.621,-32.715,0.000
1621215161.257,-39.551,-35.156,-34.668,-26.367,0.000
1621215161.261,-29.297,-31.738,-34.180,-27.344,0.000
