timestamps,TP9,AF7,AF8,TP10,Right AUX
1621213165.860,3.418,-29.785,-23.926,1.465,0.000
1621213165.864,0.488,-29.297,-32.715,-9.277,0.000
1621213165.868,17.090,-17.578,-33.691,-1.465,0.000
1621213165.872,16.113,-13.184,-21.973,13.184,0.000
1621213165.875,-4.395,-22.461,-19.043,5.371,0.000
1621213165.879,-9.766,-26.855,-25.391,-2.441,0.000
1621213165.883,-0.977,-17.090,-26.367,18.066,0.000
1621213165.887,10.254,-20.020,-22.461,11.719,0.000
1621213165.891,1.465,-36.621,-24.414,-9.277,0.000
1621213165.895,1.953,-36.133,-24.414,6.836,0.000
1621213165.899,19.531,-28.320,-20.020,19.043,0.000
1621213165.903,24.902,-21.484,-22.949,20.020,0.000
1621213165.907,14.648,-23.926,-26.367,9.277,0.000
1621213165.911,0.977,-37.109,-25.391,-3.906,0.000
1621213165.914,6.836,-38.086,-27.344,5.859,0.000
1621213165.918,8.301,-27.344,-25.879,2.930,0.000
1621213165.922,-4.395,-29.297,-27.832,-12.695,0.000
1621213165.926,-6.836,-28.320,-34.180,-5.371,0.000
1621213165.930,-8.301,-23.438,-31.738,-3.418,0.000
1621213165.934,-10.742,-28.320,-29.297,-19.043,0.000
1621213165.938,-8.789,-32.715,-33.203,-15.137,0.000
1621213165.942,-8.301,-33.203,-39.551,-2.930,0.000
1621213165.946,-1.465,-28.320,-38.086,-5.371,0.000
1621213165.950,-1.953,-25.391,-34.180,-9.277,0.000
1621213165.954,-13.184,-26.855,-31.738,-10.742,0.000
1621213165.957,-12.207,-31.738,-36.621,-17.090,0.000
1621213165.961,-5.859,-31.250,-39.551,-13.672,0.000
1621213165.965,-2.930,-20.996,-43.945,-1.465,0.000
1621213165.969,-6.348,-22.461,-45.410,-6.836,0.000
1621213165.973,-16.113,-29.297,-43.945,-11.719,0.000
1621213165.977,-6.348,-21.484,-43.457,-11.230,0.000
1621213165.981,2.930,-20.996,-36.133,-0.977,0.000
1621213165.985,4.883,-25.391,-31.738,12.695,0.000
1621213165.989,4.395,-22.949,-34.668,3.418,0.000
1621213165.993,-5.371,-25.879,-36.133,-5.371,0.000
1621213165.996,8.789,-24.414,-28.809,6.836,0.000
1621213166.000,9.766,-27.344,-33.203,13.672,0.000
1621213166.004,-7.324,-30.273,-34.668,3.418,0.000
1621213166.008,-3.906,-24.902,-31.738,0.488,0.000
1621213166.012,-5.859,-22.949,-31.738,11.719,0.000
1621213166.016,-3.418,-27.832,-25.879,21.973,0.000
1621213166.020,-3.418,-34.180,-31.250,20.020,0.000
1621213166.024,-8.789,-40.039,-45.410,13.184,0.000
1621213166.028,1.465,-33.203,-42.969,26.367,0.000
1621213166.032,9.277,-23.926,-36.133,22.461,0.000
1621213166.036,12.207,-23.926,-34.668,12.695,0.000
1621213166.039,11.719,-24.902,-35.156,4.883,0.000
1621213166.043,11.230,-23.926,-37.598,-2.441,0.000
1621213166.047,13.184,-18.066,-39.551,-1.465,0.000
1621213166.051,7.812,-22.461,-37.109,-7.324,0.000
1621213166.055,6.348,-30.762,-35.645,-9.277,0.000
1621213166.059,14.160,-23.438,-34.668,0.000,0.000
1621213166.063,19.531,-17.578,-31.738,16.113,0.000
1621213166.067,14.648,-20.020,-33.203,18.555,0.000
1621213166.071,12.207,-20.020,-31.250,9.766,0.000
1621213166.075,13.184,-25.879,-31.250,5.371,0.000
1621213166.079,9.277,-29.785,-37.598,2.441,0.000
1621213166.082,9.766,-27.832,-31.738,19.531,0.000
1621213166.086,12.695,-25.879,-28.320,23.926,0.000
1621213166.090,13.672,-28.320,-32.227,7.812,0.000
1621213166.094,12.695,-24.414,-30.762,12.695,0.000
1621213166.098,6.836,-22.461,-34.180,22.461,0.000
1621213166.102,-5.859,-30.762,-42.969,14.160,0.000
1621213166.106,-4.395,-29.785,-41.992,8.789,0.000
1621213166.110,8.789,-26.367,-32.227,14.160,0.000
1621213166.114,5.371,-29.297,-29.785,13.672,0.000
1621213166.118,4.395,-29.297,-35.156,15.625,0.000
1621213166.121,-6.348,-31.250,-36.133,4.395,0.000
1621213166.125,-10.254,-32.715,-29.297,-0.488,0.000
1621213166.129,3.906,-30.273,-28.320,15.137,0.000
1621213166.133,8.301,-27.344,-35.645,7.812,0.000
1621213166.137,-3.906,-28.809,-37.598,-9.766,0.000
1621213166.141,-12.207,-30.762,-32.715,-18.555,0.000
1621213166.145,-3.906,-34.668,-25.879,-13.672,0.000
1621213166.149,2.441,-32.227,-27.344,-2.441,0.000
1621213166.153,0.000,-25.391,-31.250,-8.789,0.000
1621213166.157,-7.324,-24.902,-29.297,-13.184,0.000
1621213166.161,-9.766,-31.738,-34.668,-1.465,0.000
1621213166.164,-3.906,-34.668,-40.527,1.953,0.000
1621213166.168,5.859,-26.855,-35.156,6.836,0.000
1621213166.172,11.230,-22.949,-27.832,9.766,0.000
1621213166.176,2.930,-33.691,-27.832,7.812,0.000
1621213166.180,-13.672,-40.527,-33.203,4.395,0.000
1621213166.184,-12.695,-32.227,-34.668,8.789,0.000
1621213166.188,-1.953,-24.902,-27.832,16.113,0.000
1621213166.192,0.977,-24.902,-23.438,15.625,0.000
1621213166.196,-6.348,-28.320,-27.344,14.160,0.000
1621213166.200,-19.043,-30.762,-35.156,-4.395,0.000
1621213166.204,-12.207,-25.391,-30.273,-6.348,0.000
1621213166.207,6.348,-16.113,-30.273,10.254,0.000
1621213166.211,9.277,-23.438,-22.461,14.648,0.000
1621213166.215,0.977,-26.367,-11.719,13.184,0.000
1621213166.219,-12.695,-25.879,-18.066,-4.395,0.000
1621213166.223,-20.508,-33.203,-20.020,-16.113,0.000
1621213166.227,-26.367,-30.273,-12.695,-18.066,0.000
1621213166.231,-21.484,-27.344,-10.742,-20.020,0.000
1621213166.235,-11.230,-28.809,-17.578,-14.648,0.000
1621213166.239,-30.762,-26.367,-18.555,-30.762,0.000
1621213166.243,-53.223,-27.832,-20.996,-45.898,0.000
1621213166.246,-39.551,-33.203,-17.578,-19.531,0.000
1621213166.250,-16.113,-29.785,-13.184,-1.953,0.000
1621213166.254,-11.230,-29.785,-15.625,-5.371,0.000
1621213166.258,-18.066,-30.273,-7.324,-9.277,0.000
1621213166.262,-23.926,-33.203,-7.324,-12.207,0.000
1621213166.266,-20.996,-39.551,-20.020,3.418,0.000
1621213166.270,-12.695,-35.156,-15.625,9.766,0.000
1621213166.274,0.488,-21.973,-3.906,18.066,0.000
1621213166.278,6.836,-19.043,-5.859,19.531,0.000
1621213166.282,3.418,-19.531,-5.859,7.324,0.000
1621213166.286,-2.930,-22.461,-14.160,-2.441,0.000
1621213166.289,2.441,-33.203,-27.344,-7.812,0.000
1621213166.293,9.766,-35.645,-23.438,2.441,0.000
1621213166.297,1.465,-35.645,-11.719,19.043,0.000
1621213166.301,-7.812,-38.574,-16.113,14.648,0.000
1621213166.305,0.488,-27.832,-20.508,9.277,0.000
1621213166.309,-14.648,-29.297,-18.555,-10.254,0.000
1621213166.313,-35.645,-39.062,-21.484,-23.438,0.000
1621213166.317,-12.695,-36.621,-15.137,5.859,0.000
1621213166.321,8.789,-22.461,-14.648,17.090,0.000
1621213166.325,-13.184,-20.508,-20.508,-10.254,0.000
1621213166.329,-31.250,-34.668,-25.879,-25.391,0.000
1621213166.332,-16.602,-34.668,-28.809,-23.926,0.000
1621213166.336,-3.418,-20.020,-27.832,-18.555,0.000
1621213166.340,-1.465,-15.137,-25.391,-22.949,0.000
1621213166.344,-7.324,-22.949,-20.508,-19.043,0.000
1621213166.348,-7.324,-34.180,-18.555,4.883,0.000
1621213166.352,8.301,-31.738,-23.926,5.859,0.000
1621213166.356,6.836,-22.949,-30.762,2.930,0.000
1621213166.360,0.000,-20.508,-28.320,2.441,0.000
1621213166.364,3.906,-23.926,-20.508,11.719,0.000
1621213166.368,15.137,-22.949,-20.508,28.320,0.000
1621213166.371,15.625,-20.508,-26.367,25.391,0.000
1621213166.375,-1.465,-30.273,-34.180,8.789,0.000
1621213166.379,-2.930,-34.668,-41.016,-5.371,0.000
1621213166.383,2.930,-30.273,-36.133,-6.836,0.000
1621213166.387,5.371,-18.066,-36.133,-14.160,0.000
1621213166.391,1.953,-5.371,-46.387,-19.043,0.000
1621213166.395,-8.301,-16.602,-47.363,-10.254,0.000
1621213166.399,-20.020,-33.691,-41.016,-12.695,0.000
1621213166.403,-27.832,-35.156,-45.410,-23.438,0.000
1621213166.407,-16.602,-22.949,-48.340,-36.133,0.000
1621213166.411,-11.719,-12.695,-41.992,-32.715,0.000
1621213166.414,-15.625,-22.949,-43.945,-11.719,0.000
1621213166.418,-4.395,-30.273,-41.992,-12.695,0.000
1621213166.422,-10.742,-15.137,-49.316,-29.297,0.000
1621213166.426,-22.949,-12.695,-60.547,-38.574,0.000
1621213166.430,-18.555,-21.484,-57.129,-28.809,0.000
1621213166.434,-12.207,-20.020,-48.828,-20.508,0.000
1621213166.438,12.207,-11.719,-46.387,-12.695,0.000
1621213166.442,7.812,-8.789,-44.434,-15.137,0.000
1621213166.446,-14.648,-12.207,-44.922,-20.020,0.000
1621213166.450,-14.160,-20.508,-50.293,-24.902,0.000
1621213166.454,-12.695,-16.602,-53.223,-30.762,0.000
1621213166.457,2.441,-7.324,-47.852,-14.648,0.000
1621213166.461,5.859,-11.719,-45.898,0.977,0.000
1621213166.465,-4.883,-17.578,-38.574,4.883,0.000
1621213166.469,-11.230,-14.648,-39.062,-0.977,0.000
1621213166.473,-4.395,-13.184,-47.363,-6.836,0.000
1621213166.477,1.465,-11.719,-44.922,-2.441,0.000
1621213166.481,0.000,-11.719,-42.969,1.465,0.000
1621213166.485,2.441,-15.137,-38.574,8.301,0.000
1621213166.489,11.230,-14.648,-34.668,6.836,0.000
1621213166.493,11.719,-16.602,-39.551,6.348,0.000
1621213166.496,7.324,-16.113,-41.992,7.324,0.000
1621213166.500,3.906,-19.043,-41.992,0.488,0.000
1621213166.504,-7.812,-26.367,-47.363,-8.789,0.000
1621213166.508,-6.836,-24.902,-50.293,-10.254,0.000
1621213166.512,2.441,-20.508,-51.758,-5.859,0.000
1621213166.516,9.277,-18.066,-43.945,1.953,0.000
1621213166.520,6.348,-19.531,-41.992,0.000,0.000
1621213166.524,-5.371,-20.020,-45.898,-8.301,0.000
1621213166.528,1.465,-18.555,-37.598,-8.301,0.000
1621213166.532,1.953,-23.438,-35.645,-6.836,0.000
1621213166.536,-12.207,-29.297,-42.969,-13.184,0.000
1621213166.539,-7.812,-33.203,-37.598,-25.879,0.000
1621213166.543,-7.812,-28.809,-31.250,-14.160,0.000
1621213166.547,-7.812,-20.996,-31.738,-1.953,0.000
1621213166.551,0.977,-22.461,-25.879,-0.977,0.000
1621213166.555,11.230,-27.344,-27.832,-4.883,0.000
1621213166.559,7.812,-31.250,-32.227,-1.953,0.000
1621213166.563,-4.883,-35.645,-34.668,0.000,0.000
1621213166.567,1.465,-34.668,-37.598,8.301,0.000
1621213166.571,12.207,-29.297,-34.180,10.254,0.000
1621213166.575,3.906,-30.273,-39.062,2.930,0.000
1621213166.579,16.602,-26.367,-35.156,17.090,0.000
1621213166.582,25.879,-25.391,-26.855,35.645,0.000
1621213166.586,0.977,-33.691,-27.832,25.391,0.000
1621213166.590,2.930,-33.203,-33.203,4.883,0.000
1621213166.594,4.395,-35.645,-43.945,-1.953,0.000
1621213166.598,1.465,-37.109,-47.363,0.977,0.000
1621213166.602,10.254,-28.809,-36.621,12.695,0.000
1621213166.606,10.254,-29.297,-32.227,9.277,0.000
1621213166.610,17.090,-32.715,-30.273,5.859,0.000
1621213166.614,9.277,-36.133,-34.180,11.230,0.000
1621213166.618,9.766,-30.273,-33.691,14.160,0.000
1621213166.621,18.066,-26.367,-23.926,10.742,0.000
1621213166.625,15.137,-30.273,-21.484,5.859,0.000
1621213166.629,8.789,-29.785,-20.508,14.160,0.000
1621213166.633,-0.488,-33.203,-21.484,10.742,0.000
1621213166.637,2.441,-27.832,-25.391,2.930,0.000
1621213166.641,1.465,-22.949,-25.879,-1.465,0.000
1621213166.645,0.977,-24.414,-33.691,-15.625,0.000
1621213166.649,-2.441,-15.625,-36.621,-17.090,0.000
1621213166.653,-5.859,-14.160,-36.133,-13.184,0.000
1621213166.657,6.348,-23.438,-34.668,-10.742,0.000
1621213166.661,16.113,-18.555,-27.832,5.371,0.000
1621213166.664,24.902,-14.648,-24.902,20.508,0.000
1621213166.668,13.672,-22.949,-36.621,-2.930,0.000
1621213166.672,-4.395,-22.949,-38.574,-12.207,0.000
1621213166.676,-5.859,-22.949,-32.227,2.441,0.000
1621213166.680,2.441,-20.020,-34.668,-4.883,0.000
1621213166.684,-5.859,-20.996,-32.227,-14.160,0.000
1621213166.688,-10.742,-27.344,-31.250,-20.020,0.000
1621213166.692,-11.719,-28.320,-34.180,-26.855,0.000
1621213166.696,-0.488,-22.461,-29.785,-15.137,0.000
1621213166.700,8.301,-13.672,-27.832,-7.812,0.000
1621213166.704,0.000,-17.578,-33.691,-29.785,0.000
1621213166.707,-5.371,-22.461,-28.320,-23.926,0.000
1621213166.711,-20.996,-20.996,-16.602,-14.648,0.000
1621213166.715,-27.832,-17.578,-18.555,-22.461,0.000
1621213166.719,-16.602,-13.184,-22.461,-17.578,0.000
1621213166.723,-23.438,-13.184,-15.137,-18.555,0.000
1621213166.727,-46.875,-15.625,-13.184,-34.668,0.000
1621213166.731,-54.199,-18.066,-18.555,-39.551,0.000
1621213166.735,-36.133,-18.066,-16.113,-24.414,0.000
1621213166.739,-27.344,-19.043,-13.672,-19.531,0.000
1621213166.743,-35.156,-24.902,-8.301,-29.785,0.000
1621213166.746,-36.133,-25.391,-9.277,-28.809,0.000
1621213166.750,-28.320,-27.344,-20.996,-18.555,0.000
1621213166.754,-22.461,-32.715,-17.578,-18.066,0.000
1621213166.758,-22.461,-26.367,0.000,-21.484,0.000
1621213166.762,-20.996,-25.391,0.000,-14.648,0.000
1621213166.766,-8.789,-27.832,-6.348,3.906,0.000
1621213166.770,-5.859,-34.668,-1.953,-2.930,0.000
1621213166.774,-30.273,-35.156,-6.348,-22.461,0.000
1621213166.778,-20.508,-24.902,-5.371,-0.977,0.000
1621213166.782,9.277,-24.414,2.441,17.578,0.000
1621213166.786,12.695,-30.273,2.930,11.719,0.000
1621213166.789,-4.395,-33.691,-2.930,-3.906,0.000
1621213166.793,-17.090,-38.574,-14.648,-9.766,0.000
1621213166.797,-13.184,-46.387,-12.695,0.977,0.000
1621213166.801,3.906,-37.109,-6.836,17.578,0.000
1621213166.805,3.906,-22.949,-3.418,12.695,0.000
1621213166.809,-14.160,-19.043,-2.441,-3.906,0.000
1621213166.813,-24.902,-17.578,-4.395,-6.348,0.000
1621213166.817,-19.531,-28.320,-13.184,-6.836,0.000
1621213166.821,0.488,-35.645,-16.602,2.441,0.000
1621213166.825,-7.324,-33.691,-12.207,8.301,0.000
1621213166.828,-30.273,-29.785,-13.184,-14.648,0.000
1621213166.832,-34.668,-28.809,-19.531,-22.949,0.000
1621213166.836,-23.438,-34.180,-18.066,-13.672,0.000
1621213166.840,-17.090,-30.273,-22.461,-5.371,0.000
1621213166.844,-14.160,-18.066,-29.785,1.465,0.000
1621213166.848,-23.438,-22.461,-23.926,-7.812,0.000
1621213166.852,-45.898,-38.574,-23.926,-22.461,0.000
1621213166.856,-33.203,-37.598,-17.578,-8.301,0.000
1621213166.860,-16.113,-23.926,-16.602,6.348,0.000
1621213166.864,-10.742,-22.949,-25.391,2.930,0.000
1621213166.868,0.488,-24.902,-21.484,17.578,0.000
1621213166.871,0.000,-21.484,-22.949,17.090,0.000
1621213166.875,2.930,-21.484,-29.785,4.883,0.000
1621213166.879,-2.441,-34.180,-32.715,4.395,0.000
1621213166.883,-3.418,-38.086,-25.879,13.672,0.000
1621213166.887,9.277,-27.344,-24.414,18.066,0.000
1621213166.891,19.043,-29.297,-29.297,10.742,0.000
1621213166.895,22.949,-30.762,-31.738,12.207,0.000
1621213166.899,24.414,-26.855,-29.297,20.020,0.000
1621213166.903,19.531,-33.691,-27.344,13.184,0.000
1621213166.907,12.207,-37.598,-32.715,2.930,0.000
1621213166.911,19.043,-29.297,-37.109,10.742,0.000
1621213166.914,12.207,-29.297,-45.898,5.371,0.000
1621213166.918,-7.324,-33.691,-47.363,-12.695,0.000
1621213166.922,-11.719,-35.156,-36.621,-13.672,0.000
1621213166.926,-8.301,-38.574,-37.598,-1.465,0.000
1621213166.930,1.465,-32.227,-39.551,13.672,0.000
1621213166.934,17.090,-21.484,-42.480,1.465,0.000
1621213166.938,5.371,-20.508,-43.457,-16.602,0.000
1621213166.942,-23.438,-29.297,-40.527,-26.855,0.000
1621213166.946,-20.508,-26.855,-31.738,-16.113,0.000
1621213166.950,-6.836,-26.367,-22.461,2.930,0.000
1621213166.954,2.930,-24.902,-31.250,3.418,0.000
1621213166.957,-7.812,-20.996,-34.668,-5.859,0.000
1621213166.961,-32.227,-27.832,-32.715,-19.043,0.000
1621213166.965,-26.855,-35.156,-35.645,-19.043,0.000
1621213166.969,0.000,-30.273,-28.320,-0.977,0.000
1621213166.973,-2.930,-26.367,-24.414,-8.301,0.000
1621213166.977,-23.926,-29.297,-28.809,-20.020,0.000
1621213166.981,-18.555,-28.809,-26.855,-7.324,0.000
1621213166.985,-5.859,-22.949,-27.344,2.930,0.000
1621213166.989,0.977,-20.020,-25.391,3.906,0.000
1621213166.993,-4.395,-24.902,-20.020,-4.883,0.000
1621213166.996,-19.531,-34.180,-24.414,-17.578,0.000
1621213167.000,-16.113,-34.180,-31.250,-5.371,0.000
1621213167.004,-20.508,-34.668,-37.598,-4.883,0.000
1621213167.008,-16.602,-34.180,-35.645,-16.602,0.000
1621213167.012,-7.812,-28.320,-31.738,-4.395,0.000
1621213167.016,-12.207,-34.180,-35.645,2.441,0.000
1621213167.020,-2.930,-36.621,-41.016,-2.441,0.000
1621213167.024,6.836,-28.320,-41.992,-5.859,0.000
1621213167.028,2.930,-25.391,-36.621,3.418,0.000
1621213167.032,-19.531,-32.715,-37.109,2.441,0.000
1621213167.036,-11.719,-34.180,-37.109,-4.395,0.000
1621213167.039,10.254,-31.250,-30.273,-1.953,0.000
1621213167.043,3.906,-20.996,-29.297,-3.418,0.000
1621213167.047,-2.930,-8.301,-37.598,12.695,0.000
1621213167.051,2.441,-2.441,-40.527,7.812,0.000
1621213167.055,-0.977,-8.301,-34.668,-23.438,0.000
1621213167.059,-16.113,-23.438,-35.156,-25.879,0.000
1621213167.063,-11.719,-22.949,-40.039,-1.465,0.000
1621213167.067,2.441,-10.254,-50.781,-26.367,0.000
1621213167.071,0.000,-7.324,-48.828,-44.922,0.000
1621213167.075,0.977,-9.766,-39.551,-1.953,0.000
1621213167.079,4.395,-12.695,-27.344,14.160,0.000
1621213167.082,8.789,-16.602,-21.973,11.719,0.000
1621213167.086,8.789,-15.625,-32.227,14.160,0.000
1621213167.090,-0.977,-13.672,-39.551,14.160,0.000
1621213167.094,-7.324,-18.555,-36.621,-1.953,0.000
1621213167.098,-2.441,-24.902,-25.879,-0.488,0.000
1621213167.102,-5.371,-30.762,-31.250,3.418,0.000
1621213167.106,-12.207,-34.668,-33.203,4.883,0.000
1621213167.110,-5.859,-32.715,-31.250,12.207,0.000
1621213167.114,12.207,-28.320,-33.203,20.996,0.000
1621213167.118,14.648,-23.926,-26.855,28.320,0.000
1621213167.121,6.348,-25.879,-26.855,19.531,0.000
1621213167.125,16.113,-21.484,-28.320,19.531,0.000
1621213167.129,21.973,-15.625,-31.250,20.508,0.000
1621213167.133,9.766,-20.020,-28.809,19.043,0.000
1621213167.137,6.836,-21.484,-30.762,15.625,0.000
1621213167.141,13.672,-15.137,-29.785,-0.488,0.000
1621213167.145,18.555,-12.207,-28.320,-1.465,0.000
1621213167.149,17.578,-15.137,-31.250,14.160,0.000
1621213167.153,5.371,-19.043,-29.785,22.949,0.000
1621213167.157,-1.465,-20.020,-29.297,7.324,0.000
1621213167.161,3.906,-19.531,-27.344,1.465,0.000
1621213167.164,-0.977,-20.508,-34.668,8.789,0.000
1621213167.168,-6.836,-24.414,-31.250,4.883,0.000
1621213167.172,-1.465,-24.414,-26.855,-1.465,0.000
1621213167.176,-3.418,-25.391,-39.062,8.789,0.000
1621213167.180,2.930,-27.344,-41.992,16.602,0.000
1621213167.184,15.625,-21.484,-34.668,26.367,0.000
1621213167.188,24.902,-16.602,-28.320,17.090,0.000
1621213167.192,20.508,-20.020,-37.109,12.207,0.000
1621213167.196,24.902,-19.531,-40.039,30.273,0.000
1621213167.200,28.809,-14.160,-29.785,34.668,0.000
1621213167.203,22.461,-18.066,-31.738,29.297,0.000
1621213167.207,24.902,-18.555,-27.832,32.227,0.000
1621213167.211,32.715,-11.230,-15.137,39.551,0.000
1621213167.215,27.344,-13.184,-17.578,42.969,0.000
1621213167.219,24.902,-15.625,-22.949,34.668,0.000
1621213167.223,27.344,-17.090,-22.949,29.785,0.000
1621213167.227,28.320,-18.066,-27.344,25.879,0.000
1621213167.231,21.484,-21.973,-34.180,14.648,0.000
1621213167.235,7.812,-24.414,-34.180,10.254,0.000
1621213167.239,13.184,-19.531,-34.668,5.371,0.000
1621213167.243,19.531,-18.066,-29.785,11.719,0.000
1621213167.246,14.160,-21.484,-30.762,7.812,0.000
1621213167.250,3.418,-25.391,-41.504,-6.836,0.000
1621213167.254,-5.859,-33.203,-49.316,-11.719,0.000
1621213167.258,1.953,-28.809,-46.387,-5.859,0.000
1621213167.262,13.184,-15.625,-38.574,-6.836,0.000
1621213167.266,17.090,-17.578,-35.156,-17.578,0.000
1621213167.270,-1.953,-28.809,-33.203,-11.719,0.000
1621213167.274,-13.184,-33.691,-32.227,-9.277,0.000
1621213167.278,-7.812,-29.785,-36.621,-26.855,0.000
1621213167.282,-20.508,-28.809,-46.387,-23.926,0.000
1621213167.286,-20.020,-26.367,-41.504,-11.719,0.000
1621213167.289,-4.883,-21.973,-33.203,-7.812,0.000
1621213167.293,1.465,-20.996,-29.785,-18.066,0.000
1621213167.297,0.977,-19.531,-31.738,-17.090,0.000
1621213167.301,0.488,-20.996,-34.668,1.953,0.000
1621213167.305,-1.465,-24.902,-39.062,-6.348,0.000
1621213167.309,-6.836,-29.297,-45.898,-22.949,0.000
1621213167.313,-9.766,-30.762,-42.969,-33.203,0.000
1621213167.317,0.000,-25.391,-31.738,7.324,0.000
1621213167.321,12.695,-20.020,-31.738,-14.160,0.000
1621213167.325,11.719,-24.902,-34.180,-21.484,0.000
1621213167.328,-6.836,-33.691,-41.504,6.348,0.000
1621213167.332,0.000,-33.691,-50.781,-3.418,0.000
1621213167.336,13.184,-22.461,-36.621,-14.160,0.000
1621213167.340,7.812,-14.648,-33.203,1.465,0.000
1621213167.344,14.648,-14.648,-40.527,17.090,0.000
1621213167.348,6.348,-19.043,-34.180,2.930,0.000
1621213167.352,-5.371,-27.832,-39.551,10.254,0.000
1621213167.356,0.000,-28.809,-50.781,-22.461,0.000
1621213167.360,6.348,-24.902,-41.016,-13.672,0.000
1621213167.364,11.719,-24.414,-26.855,20.508,0.000
1621213167.368,17.578,-22.949,-22.949,19.531,0.000
1621213167.371,11.230,-21.973,-34.668,-4.883,0.000
1621213167.375,-1.953,-27.344,-39.062,-8.789,0.000
1621213167.379,-21.973,-27.832,-16.113,-35.645,0.000
1621213167.383,-22.461,-16.602,-20.996,-51.758,0.000
1621213167.387,3.418,-20.508,-20.996,29.297,0.000
1621213167.391,-6.348,-32.227,-4.395,23.926,0.000
1621213167.395,-18.555,-34.668,-15.137,6.836,0.000
1621213167.399,-2.930,-32.715,-15.137,8.789,0.000
1621213167.403,-5.371,-20.996,-3.906,-11.230,0.000
1621213167.407,-13.184,-11.719,-14.160,-12.207,0.000
1621213167.411,-12.695,-17.578,-9.277,-8.301,0.000
1621213167.414,-17.090,-22.949,0.000,16.602,0.000
1621213167.418,-17.090,-30.762,-15.137,11.719,0.000
1621213167.422,-16.113,-37.598,-16.602,5.371,0.000
1621213167.426,-11.719,-32.715,-4.395,-2.930,0.000
1621213167.430,-1.465,-28.809,-11.230,-14.160,0.000
1621213167.434,-1.465,-20.020,-16.113,19.043,0.000
1621213167.438,-7.812,-13.672,-6.348,19.531,0.000
1621213167.442,-5.859,-16.602,-14.160,2.930,0.000
1621213167.446,-11.719,-19.531,-24.902,-15.137,0.000
1621213167.450,-11.230,-25.391,-20.996,-16.113,0.000
1621213167.453,-7.812,-31.738,-11.719,1.953,0.000
1621213167.457,-13.672,-37.109,-16.113,5.371,0.000
1621213167.461,-3.418,-31.738,-24.902,1.953,0.000
1621213167.465,13.184,-16.113,-27.832,5.371,0.000
1621213167.469,12.695,-17.578,-29.297,13.184,0.000
1621213167.473,-5.371,-24.414,-35.645,-8.789,0.000
1621213167.477,-16.113,-26.367,-39.062,-28.320,0.000
1621213167.481,-9.277,-32.227,-24.902,1.953,0.000
1621213167.485,-8.789,-25.879,-34.668,-9.277,0.000
1621213167.489,-17.090,-22.949,-41.016,-28.809,0.000
1621213167.493,-23.438,-24.414,-42.480,-33.691,0.000
1621213167.496,-38.574,-25.391,-48.828,-34.180,0.000
1621213167.500,-46.387,-39.551,-43.457,-28.809,0.000
1621213167.504,-28.809,-36.133,-44.922,-33.203,0.000
1621213167.508,-16.113,-24.414,-39.062,-22.949,0.000
1621213167.512,-20.996,-20.020,-38.574,-27.344,0.000
1621213167.516,-8.301,-16.602,-41.992,-16.113,0.000
1621213167.520,1.953,-21.973,-35.645,-13.672,0.000
1621213167.524,-11.230,-24.902,-34.180,-26.367,0.000
1621213167.528,-11.230,-19.531,-39.062,-8.301,0.000
1621213167.532,-2.930,-21.484,-36.621,3.906,0.000
1621213167.535,-14.648,-22.949,-40.527,-15.137,0.000
1621213167.539,-19.531,-30.273,-47.852,-28.809,0.000
1621213167.543,6.348,-24.902,-43.457,-17.578,0.000
1621213167.547,17.578,-13.672,-41.992,-1.465,0.000
1621213167.551,16.113,-12.695,-41.992,9.766,0.000
1621213167.555,5.371,-14.160,-42.969,-1.953,0.000
1621213167.559,1.465,-17.578,-44.434,3.906,0.000
1621213167.563,18.066,-18.066,-35.645,25.879,0.000
1621213167.567,16.113,-23.926,-44.922,15.137,0.000
1621213167.571,0.000,-26.855,-50.781,11.230,0.000
1621213167.575,3.906,-21.484,-39.062,8.301,0.000
1621213167.578,5.371,-19.043,-38.086,5.371,0.000
1621213167.582,4.883,-22.949,-42.969,1.953,0.000
1621213167.586,-3.418,-26.855,-43.945,-9.766,0.000
1621213167.590,-8.789,-22.949,-47.363,-5.859,0.000
1621213167.594,0.000,-22.461,-43.457,2.441,0.000
1621213167.598,-3.418,-29.785,-45.410,-7.324,0.000
1621213167.602,-18.066,-33.203,-50.781,-6.836,0.000
1621213167.606,-10.254,-26.855,-39.551,-4.395,0.000
1621213167.610,-0.977,-25.391,-43.457,-17.090,0.000
1621213167.614,0.488,-29.297,-44.922,-8.789,0.000
1621213167.618,0.000,-33.691,-36.621,2.930,0.000
1621213167.621,-1.953,-32.715,-41.016,-1.953,0.000
1621213167.625,-9.277,-32.715,-44.922,-12.207,0.000
1621213167.629,-7.324,-36.133,-50.293,-14.648,0.000
1621213167.633,10.254,-28.809,-39.062,3.906,0.000
1621213167.637,16.113,-20.020,-29.297,13.184,0.000
1621213167.641,18.066,-22.461,-36.621,5.859,0.000
1621213167.645,23.926,-20.996,-36.621,7.324,0.000
1621213167.649,19.531,-20.508,-31.738,24.414,0.000
1621213167.653,11.719,-28.809,-43.457,21.484,0.000
1621213167.657,-0.488,-31.250,-50.781,13.184,0.000
1621213167.660,3.906,-20.996,-39.062,27.344,0.000
1621213167.664,17.090,-19.531,-34.668,29.297,0.000
1621213167.668,10.254,-20.996,-35.645,24.902,0.000
1621213167.672,9.277,-18.555,-37.598,18.555,0.000
1621213167.676,19.531,-20.508,-41.016,15.625,0.000
1621213167.680,10.254,-30.273,-42.480,8.789,0.000
1621213167.684,13.672,-32.227,-32.715,6.836,0.000
1621213167.688,21.484,-23.926,-30.273,1.953,0.000
1621213167.692,7.812,-27.344,-39.551,-11.719,0.000
1621213167.696,0.488,-31.738,-37.109,-2.441,0.000
1621213167.700,11.719,-26.855,-32.715,6.348,0.000
1621213167.703,6.348,-24.414,-33.691,0.977,0.000
1621213167.707,-6.836,-31.738,-39.062,-5.859,0.000
1621213167.711,1.953,-35.156,-37.109,1.465,0.000
1621213167.715,7.324,-27.344,-32.715,0.977,0.000
1621213167.719,8.301,-19.043,-28.809,-0.488,0.000
1621213167.723,1.953,-22.949,-30.273,-5.371,0.000
1621213167.727,-7.324,-28.320,-30.762,-8.789,0.000
1621213167.731,-13.672,-35.645,-39.062,-5.859,0.000
1621213167.735,-17.090,-39.551,-46.875,-12.207,0.000
1621213167.739,-21.484,-34.180,-42.969,-17.090,0.000
1621213167.743,-15.137,-28.809,-34.668,-17.578,0.000
1621213167.746,-10.254,-28.320,-30.762,1.465,0.000
1621213167.750,-8.301,-30.762,-30.273,0.977,0.000
1621213167.754,-4.883,-35.156,-33.691,18.066,0.000
1621213167.758,-10.254,-40.039,-41.016,42.480,0.000
1621213167.762,4.883,-32.715,-33.203,-0.488,0.000
1621213167.766,19.043,-28.809,-31.250,-13.672,0.000
1621213167.770,5.859,-32.715,-37.109,-10.254,0.000
1621213167.774,10.742,-30.273,-33.691,-7.812,0.000
1621213167.778,26.367,-30.273,-28.320,9.277,0.000
1621213167.782,24.902,-34.668,-32.715,23.438,0.000
1621213167.785,11.719,-35.156,-36.621,15.625,0.000
1621213167.789,13.184,-27.344,-34.180,9.277,0.000
1621213167.793,27.344,-22.949,-33.203,16.602,0.000
1621213167.797,32.227,-26.855,-27.832,18.555,0.000
1621213167.801,22.461,-27.832,-25.391,15.137,0.000
1621213167.805,8.301,-33.691,-36.621,-0.977,0.000
1621213167.809,5.371,-37.598,-35.156,-9.766,0.000
1621213167.813,19.043,-21.973,-18.555,16.602,0.000
1621213167.817,18.066,-17.578,-23.438,13.184,0.000
1621213167.821,8.301,-24.902,-30.273,-3.418,0.000
1621213167.825,9.766,-24.414,-24.414,1.953,0.000
1621213167.828,1.953,-33.203,-35.156,-9.277,0.000
1621213167.832,-5.371,-32.715,-39.551,-10.254,0.000
1621213167.836,-8.301,-20.996,-28.809,-1.465,0.000
1621213167.840,-14.160,-20.020,-26.855,-4.883,0.000
1621213167.844,-22.949,-26.367,-33.203,-10.742,0.000
1621213167.848,-20.020,-26.367,-36.133,-19.043,0.000
1621213167.852,-18.555,-26.367,-33.203,-15.137,0.000
1621213167.856,-24.902,-30.273,-33.203,-6.836,0.000
1621213167.860,-23.438,-30.762,-32.715,-8.301,0.000
1621213167.864,-18.555,-27.832,-38.086,-11.719,0.000
1621213167.867,-13.184,-26.855,-35.645,-7.324,0.000
1621213167.871,-20.996,-32.227,-37.598,-17.090,0.000
1621213167.875,-21.973,-30.762,-37.109,-14.648,0.000
1621213167.879,-5.859,-24.902,-32.227,-2.441,0.000
1621213167.883,-1.465,-30.273,-35.645,3.418,0.000
1621213167.887,-3.418,-31.738,-35.156,4.395,0.000
1621213167.891,-4.395,-28.320,-36.621,-5.859,0.000
1621213167.895,-7.324,-35.645,-39.551,-3.418,0.000
1621213167.899,1.953,-32.227,-33.691,1.953,0.000
1621213167.903,1.465,-25.879,-29.297,-6.348,0.000
1621213167.907,-11.719,-28.809,-30.762,-9.766,0.000
1621213167.910,-4.395,-26.367,-26.367,-0.488,0.000
1621213167.914,-8.789,-29.785,-27.832,-0.488,0.000
1621213167.918,-10.742,-27.832,-27.344,-3.418,0.000
1621213167.922,-3.906,-21.484,-21.973,-9.277,0.000
1621213167.926,-1.953,-28.809,-29.297,-9.766,0.000
1621213167.930,-3.418,-30.762,-33.203,-9.277,0.000
1621213167.934,-9.766,-34.668,-30.273,-10.742,0.000
1621213167.938,-15.137,-28.809,-27.832,-14.160,0.000
1621213167.942,-17.578,-16.113,-29.297,-27.344,0.000
1621213167.946,-34.180,-20.996,-31.738,-28.320,0.000
1621213167.950,-42.969,-22.949,-32.715,-23.926,0.000
1621213167.953,-42.480,-19.043,-29.297,-18.555,0.000
1621213167.957,-43.945,-25.879,-28.809,-26.367,0.000
1621213167.961,-36.621,-24.414,-27.832,-26.855,0.000
1621213167.965,-29.785,-20.020,-20.996,-8.789,0.000
1621213167.969,-22.461,-24.902,-17.578,-11.230,0.000
1621213167.973,-19.043,-26.367,-15.137,-14.648,0.000
1621213167.977,-9.766,-22.461,-14.160,-0.488,0.000
1621213167.981,-9.277,-20.508,-16.602,5.859,0.000
1621213167.985,-3.906,-23.926,-19.531,11.719,0.000
1621213167.989,10.742,-23.926,-26.367,13.184,0.000
1621213167.992,14.160,-9.277,-27.344,14.160,0.000
1621213167.996,12.695,-4.395,-26.367,7.324,0.000
1621213168.000,1.465,-10.742,-33.691,-4.883,0.000
1621213168.004,-4.395,-20.020,-32.715,-8.789,0.000
1621213168.008,-8.301,-26.855,-27.832,-14.160,0.000
1621213168.012,-18.066,-26.367,-29.297,-12.695,0.000
1621213168.016,-22.461,-29.785,-34.180,-5.859,0.000
1621213168.020,-11.230,-33.691,-41.992,-3.418,0.000
1621213168.024,6.348,-26.855,-39.551,-0.488,0.000
1621213168.028,13.672,-24.414,-34.668,-2.441,0.000
1621213168.032,7.324,-25.391,-37.109,-0.977,0.000
1621213168.035,3.906,-29.297,-39.062,-1.465,0.000
1621213168.039,6.348,-31.250,-36.621,-6.836,0.000
1621213168.043,0.000,-32.227,-33.691,-1.465,0.000
1621213168.047,-14.160,-40.527,-35.645,-4.883,0.000
1621213168.051,-13.184,-33.203,-31.250,2.441,0.000
1621213168.055,-3.418,-23.438,-30.762,9.277,0.000
1621213168.059,-2.930,-26.855,-29.785,0.977,0.000
1621213168.063,-1.465,-31.738,-23.438,5.859,0.000
1621213168.067,-4.883,-29.785,-26.855,9.766,0.000
1621213168.071,-16.602,-28.809,-40.039,-11.230,0.000
1621213168.075,-18.066,-33.691,-44.922,-22.461,0.000
1621213168.078,-5.371,-32.227,-33.691,0.000,0.000
1621213168.082,-6.348,-25.391,-26.367,6.836,0.000
1621213168.086,-17.578,-28.809,-34.668,-10.742,0.000
1621213168.090,-12.695,-33.203,-33.691,-7.812,0.000
1621213168.094,1.465,-32.227,-27.344,1.953,0.000
1621213168.098,-2.930,-36.621,-36.133,-5.371,0.000
1621213168.102,-9.277,-32.227,-34.180,-4.395,0.000
1621213168.106,-2.441,-29.785,-36.133,-12.207,0.000
1621213168.110,-2.930,-36.621,-39.551,-15.625,0.000
1621213168.114,-11.230,-40.039,-38.086,-4.395,0.000
1621213168.117,-14.648,-41.016,-39.551,-5.859,0.000
1621213168.121,-9.277,-34.180,-37.598,-4.883,0.000
1621213168.125,-0.488,-30.762,-35.645,-5.859,0.000
1621213168.129,-0.977,-32.227,-31.738,-4.883,0.000
1621213168.133,3.906,-33.203,-30.273,5.859,0.000
1621213168.137,13.184,-28.320,-30.762,2.930,0.000
1621213168.141,7.324,-28.320,-34.668,-11.230,0.000
1621213168.145,-0.488,-31.738,-34.180,-6.836,0.000
1621213168.149,3.906,-25.879,-28.320,9.766,0.000
1621213168.153,7.812,-30.762,-28.809,2.441,0.000
1621213168.157,0.977,-31.250,-26.367,-8.789,0.000
1621213168.160,-7.324,-25.391,-26.855,-6.348,0.000
1621213168.164,-15.625,-30.762,-33.203,-10.742,0.000
1621213168.168,-12.695,-30.273,-35.156,-6.348,0.000
1621213168.172,0.000,-25.391,-30.762,0.488,0.000
1621213168.176,-2.930,-27.832,-24.902,0.488,0.000
1621213168.180,-4.395,-26.855,-21.973,1.465,0.000
1621213168.184,0.977,-25.879,-24.414,6.348,0.000
1621213168.188,-0.977,-21.484,-22.461,6.348,0.000
1621213168.192,-3.418,-23.438,-24.414,-0.488,0.000
1621213168.196,-12.207,-24.414,-24.414,-0.488,0.000
1621213168.199,-6.836,-26.367,-23.438,-3.906,0.000
1621213168.203,-2.930,-30.273,-26.855,-13.672,0.000
1621213168.207,-16.113,-31.250,-29.785,-17.090,0.000
1621213168.211,-12.695,-29.297,-23.438,-8.301,0.000
1621213168.215,0.977,-25.879,-20.508,-4.395,0.000
1621213168.219,-7.812,-32.715,-27.832,-6.348,0.000
1621213168.223,-18.555,-36.621,-27.344,-6.348,0.000
1621213168.227,-13.672,-34.668,-30.762,-6.348,0.000
1621213168.231,-10.742,-31.738,-32.227,2.930,0.000
1621213168.235,-5.371,-27.344,-26.367,11.719,0.000
1621213168.239,0.488,-27.344,-26.367,4.883,0.000
1621213168.242,-6.348,-30.273,-28.320,-1.953,0.000
1621213168.246,-4.883,-33.691,-30.762,-4.395,0.000
1621213168.250,2.930,-29.297,-29.785,7.812,0.000
1621213168.254,4.395,-22.461,-26.367,19.043,0.000
1621213168.258,0.488,-28.320,-33.203,3.906,0.000
1621213168.262,5.371,-31.250,-39.551,3.906,0.000
1621213168.266,12.207,-29.297,-34.668,26.367,0.000
1621213168.270,16.113,-31.250,-29.297,22.461,0.000
1621213168.274,11.230,-36.621,-36.133,7.324,0.000
1621213168.278,5.371,-38.086,-38.086,14.648,0.000
1621213168.282,10.254,-31.738,-35.645,14.648,0.000
1621213168.285,1.953,-32.715,-34.180,12.695,0.000
1621213168.289,0.000,-37.109,-32.715,3.418,0.000
1621213168.293,3.906,-35.645,-30.273,-0.488,0.000
1621213168.297,4.883,-32.715,-25.391,14.160,0.000
1621213168.301,0.488,-33.691,-26.855,13.184,0.000
1621213168.305,-4.395,-37.109,-30.762,-8.301,0.000
1621213168.309,-9.277,-43.457,-41.016,-17.578,0.000
1621213168.313,-1.953,-38.086,-33.203,0.977,0.000
1621213168.317,11.230,-35.156,-20.020,13.184,0.000
1621213168.321,9.766,-34.668,-28.320,8.789,0.000
1621213168.324,8.789,-24.902,-30.762,2.441,0.000
1621213168.328,4.395,-23.926,-30.762,2.441,0.000
1621213168.332,1.465,-27.344,-39.062,1.953,0.000
1621213168.336,-1.953,-33.691,-42.480,-12.695,0.000
1621213168.340,-1.953,-31.738,-30.762,-9.277,0.000
1621213168.344,0.488,-28.809,-22.461,8.301,0.000
1621213168.348,7.812,-30.762,-25.391,9.766,0.000
1621213168.352,7.324,-24.902,-28.320,17.578,0.000
1621213168.356,-0.488,-26.367,-26.855,13.184,0.000
1621213168.360,3.418,-33.203,-31.738,8.301,0.000
1621213168.364,17.090,-27.832,-33.691,16.602,0.000
1621213168.367,18.555,-21.973,-34.180,17.090,0.000
1621213168.371,11.230,-21.973,-37.109,5.859,0.000
1621213168.375,17.090,-22.949,-35.645,7.324,0.000
1621213168.379,26.367,-21.484,-30.762,25.391,0.000
1621213168.383,23.438,-24.902,-32.227,25.879,0.000
1621213168.387,9.766,-27.832,-40.039,7.812,0.000
1621213168.391,6.836,-28.320,-39.551,1.465,0.000
1621213168.395,9.766,-30.762,-38.574,8.789,0.000
1621213168.399,15.137,-26.367,-32.227,13.184,0.000
1621213168.403,19.531,-24.414,-25.879,8.301,0.000
1621213168.407,18.066,-25.391,-26.855,6.348,0.000
1621213168.410,19.531,-23.926,-26.367,10.254,0.000
1621213168.414,15.137,-24.414,-29.785,6.836,0.000
1621213168.418,9.766,-27.832,-26.855,6.348,0.000
1621213168.422,6.348,-30.762,-21.973,7.324,0.000
1621213168.426,-0.977,-36.133,-33.203,-3.906,0.000
1621213168.430,1.465,-35.645,-40.527,-7.324,0.000
1621213168.434,12.207,-25.879,-30.762,7.812,0.000
1621213168.438,19.531,-25.879,-30.762,9.766,0.000
1621213168.442,15.137,-26.367,-36.133,0.977,0.000
1621213168.446,-8.301,-30.762,-39.062,0.977,0.000
1621213168.449,-13.184,-37.109,-42.480,3.906,0.000
1621213168.453,-3.906,-33.203,-38.086,1.465,0.000
1621213168.457,-3.418,-29.785,-38.086,-3.418,0.000
1621213168.461,-0.977,-24.414,-41.992,-5.859,0.000
1621213168.465,-4.883,-21.973,-41.992,-4.395,0.000
1621213168.469,-5.859,-25.879,-42.969,1.465,0.000
1621213168.473,4.395,-20.996,-32.715,9.277,0.000
1621213168.477,-9.766,-26.367,-31.250,-2.441,0.000
1621213168.481,-20.020,-34.668,-40.527,-22.461,0.000
1621213168.485,-25.879,-32.715,-41.992,-26.367,0.000
1621213168.489,-25.879,-34.668,-39.062,-28.809,0.000
1621213168.492,-16.113,-26.855,-35.156,-21.973,0.000
1621213168.496,-13.672,-17.578,-36.621,-14.160,0.000
1621213168.500,-13.184,-23.438,-44.922,-15.625,0.000
1621213168.504,-9.766,-31.738,-52.246,-25.391,0.000
1621213168.508,-8.789,-29.785,-42.480,-20.508,0.000
1621213168.512,-11.230,-24.902,-34.668,-10.254,0.000
1621213168.516,-12.695,-27.344,-32.715,-7.812,0.000
1621213168.520,-13.672,-26.855,-33.203,0.977,0.000
1621213168.524,-31.250,-30.273,-39.551,-14.160,0.000
1621213168.528,-31.250,-29.785,-38.574,-16.113,0.000
1621213168.532,-0.488,-22.461,-34.668,14.160,0.000
1621213168.535,6.836,-25.879,-29.297,20.020,0.000
1621213168.539,-3.906,-22.949,-20.020,-1.465,0.000
1621213168.543,-7.324,-16.602,-24.902,-8.301,0.000
1621213168.547,-8.301,-24.414,-30.273,-13.672,0.000
1621213168.551,-29.297,-28.320,-22.461,-27.344,0.000
1621213168.555,-34.668,-21.484,-18.555,-22.461,0.000
1621213168.559,-17.090,-25.391,-18.066,-15.137,0.000
1621213168.563,-40.039,-34.668,-12.207,-33.691,0.000
1621213168.567,-65.918,-37.598,-17.578,-49.316,0.000
1621213168.571,-37.109,-30.762,-20.020,-33.691,0.000
1621213168.574,-34.668,-32.227,-5.859,-36.133,0.000
1621213168.578,-59.082,-36.621,-3.418,-47.852,0.000
1621213168.582,-34.668,-33.691,-7.324,-22.949,0.000
1621213168.586,-20.996,-37.109,-1.953,-15.137,0.000
1621213168.590,-48.828,-43.945,-5.371,-50.781,0.000
1621213168.594,-35.156,-42.969,-12.695,-45.898,0.000
1621213168.598,-8.301,-37.109,-2.441,-2.930,0.000
1621213168.602,-29.785,-41.016,7.812,-14.160,0.000
1621213168.606,-44.922,-41.992,1.953,-37.598,0.000
1621213168.610,-19.043,-34.180,0.488,-10.742,0.000
1621213168.614,-22.461,-38.574,14.648,-5.371,0.000
1621213168.617,-43.457,-55.176,7.324,-19.531,0.000
1621213168.621,-26.855,-57.617,-6.836,-15.625,0.000
1621213168.625,-18.066,-46.875,3.418,-3.418,0.000
1621213168.629,-13.672,-51.758,8.789,15.137,0.000
1621213168.633,4.395,-55.176,6.348,33.691,0.000
1621213168.637,5.859,-42.480,9.766,29.785,0.000
1621213168.641,9.277,-40.039,9.766,23.926,0.000
1621213168.645,14.648,-48.828,1.953,32.715,0.000
1621213168.649,14.648,-49.316,-2.930,38.574,0.000
1621213168.653,28.809,-36.621,0.977,42.969,0.000
1621213168.656,34.180,-36.133,0.977,38.086,0.000
1621213168.660,39.062,-40.527,-3.418,35.156,0.000
1621213168.664,45.410,-39.062,-11.719,32.715,0.000
1621213168.668,35.645,-34.668,-14.160,27.832,0.000
1621213168.672,21.973,-32.715,-11.719,10.254,0.000
1621213168.676,18.555,-29.785,-15.137,0.977,0.000
1621213168.680,21.973,-23.926,-16.113,16.113,0.000
1621213168.684,16.113,-29.785,-18.066,13.672,0.000
1621213168.688,20.508,-36.621,-16.113,-3.418,0.000
1621213168.692,24.414,-32.715,-16.602,-8.301,0.000
1621213168.696,12.695,-31.738,-26.367,-6.348,0.000
1621213168.699,-0.977,-39.551,-27.832,-8.789,0.000
1621213168.703,1.953,-36.133,-19.043,-13.672,0.000
1621213168.707,5.371,-32.227,-22.461,-24.414,0.000
1621213168.711,-2.441,-37.598,-34.180,-35.156,0.000
1621213168.715,-6.836,-38.574,-36.621,-33.203,0.000
1621213168.719,-16.602,-39.062,-31.738,-32.227,0.000
1621213168.723,-22.949,-41.016,-33.203,-39.062,0.000
1621213168.727,-24.902,-38.574,-31.738,-34.180,0.000
1621213168.731,-17.578,-35.645,-28.809,-12.695,0.000
1621213168.735,-5.371,-34.180,-24.902,7.812,0.000
1621213168.739,-13.672,-39.062,-26.855,-13.672,0.000
1621213168.742,-18.555,-41.504,-29.785,-26.855,0.000
1621213168.746,-10.254,-21.484,-29.785,-16.602,0.000
1621213168.750,-13.184,-18.066,-32.715,-27.832,0.000
1621213168.754,-25.879,-30.762,-34.668,-37.109,0.000
1621213168.758,-14.160,-23.926,-35.645,-30.273,0.000
1621213168.762,-9.766,-26.367,-34.668,-20.508,0.000
1621213168.766,-12.207,-27.832,-32.227,-25.391,0.000
1621213168.770,-6.836,-19.531,-30.273,-36.621,0.000
1621213168.774,0.977,-16.602,-31.250,-25.879,0.000
1621213168.778,15.137,-17.578,-33.203,-15.137,0.000
1621213168.781,13.672,-17.090,-32.227,-20.020,0.000
1621213168.785,-8.301,-21.484,-40.039,-36.133,0.000
1621213168.789,-14.160,-24.902,-41.504,-37.598,0.000
1621213168.793,-16.113,-20.996,-32.715,-34.668,0.000
1621213168.797,-15.137,-17.578,-34.180,-40.527,0.000
1621213168.801,-4.883,-19.043,-36.133,-19.043,0.000
1621213168.805,-6.348,-22.461,-33.691,-16.602,0.000
1621213168.809,-16.113,-22.949,-30.273,-39.062,0.000
1621213168.813,-15.625,-20.996,-30.762,-19.531,0.000
1621213168.817,-19.531,-23.926,-35.645,-7.324,0.000
1621213168.821,-11.719,-21.484,-34.180,-13.184,0.000
1621213168.824,7.812,-20.020,-31.738,9.277,0.000
1621213168.828,-8.789,-22.949,-28.320,6.348,0.000
1621213168.832,-16.602,-20.996,-24.902,-6.836,0.000
1621213168.836,-7.324,-24.902,-22.949,-2.441,0.000
1621213168.840,-8.789,-28.320,-23.438,-1.953,0.000
1621213168.844,-20.996,-34.180,-26.855,-18.066,0.000
1621213168.848,-26.855,-34.668,-26.855,-26.855,0.000
1621213168.852,-18.066,-30.273,-32.715,-10.742,0.000
1621213168.856,-16.602,-31.250,-34.668,-10.742,0.000
1621213168.860,-22.461,-30.762,-28.809,-25.391,0.000
1621213168.864,-28.809,-31.250,-33.203,-25.391,0.000
1621213168.867,-24.902,-30.762,-35.156,-25.879,0.000
1621213168.871,-10.742,-29.297,-35.645,-26.367,0.000
1621213168.875,-8.301,-33.203,-36.133,-17.090,0.000
1621213168.879,-14.648,-32.715,-38.574,-13.184,0.000
1621213168.883,-6.348,-28.320,-43.457,-7.812,0.000
1621213168.887,-14.160,-29.297,-47.363,-17.090,0.000
1621213168.891,-19.043,-28.320,-51.758,-17.578,0.000
1621213168.895,-0.977,-20.020,-45.410,7.324,0.000
1621213168.899,7.812,-14.648,-36.621,13.672,0.000
1621213168.903,10.742,-19.043,-38.086,14.648,0.000
1621213168.906,17.578,-19.043,-39.062,12.207,0.000
1621213168.910,14.160,-17.578,-39.551,14.160,0.000
1621213168.914,3.906,-25.391,-47.852,9.766,0.000
1621213168.918,3.906,-28.320,-49.316,3.418,0.000
1621213168.922,8.301,-29.785,-44.922,3.418,0.000
1621213168.926,6.348,-29.297,-34.180,0.977,0.000
1621213168.930,4.395,-23.926,-27.832,9.766,0.000
1621213168.934,3.418,-26.855,-37.598,8.301,0.000
1621213168.938,-0.488,-34.180,-43.945,6.348,0.000
1621213168.942,11.230,-27.344,-37.109,4.395,0.000
1621213168.946,17.090,-24.414,-35.645,0.000,0.000
1621213168.949,4.883,-34.180,-42.480,-9.277,0.000
1621213168.953,5.371,-27.344,-42.480,-10.742,0.000
1621213168.957,3.906,-20.020,-41.504,-12.207,0.000
1621213168.961,-2.930,-29.297,-40.039,-15.137,0.000
1621213168.965,0.977,-29.785,-38.574,-5.371,0.000
1621213168.969,19.531,-27.832,-36.133,3.906,0.000
1621213168.973,8.301,-37.598,-46.875,-14.160,0.000
1621213168.977,-7.324,-38.574,-48.828,-20.020,0.000
1621213168.981,2.441,-25.879,-34.180,5.859,0.000
1621213168.985,1.465,-23.926,-32.227,7.324,0.000
1621213168.988,-7.812,-25.391,-35.645,-13.184,0.000
1621213168.992,0.488,-15.625,-31.738,-4.395,0.000
1621213168.996,2.930,-17.578,-39.551,6.836,0.000
1621213169.000,-2.930,-27.832,-43.457,0.000,0.000
1621213169.004,0.977,-27.832,-33.203,-0.977,0.000
1621213169.008,0.000,-26.367,-30.273,2.930,0.000
1621213169.012,7.812,-28.809,-36.133,7.324,0.000
1621213169.016,19.043,-28.320,-34.180,20.996,0.000
1621213169.020,19.531,-27.344,-35.156,20.996,0.000
1621213169.024,15.137,-30.273,-36.621,20.996,0.000
1621213169.028,14.648,-27.832,-30.762,25.879,0.000
1621213169.031,15.625,-26.855,-34.180,18.555,0.000
1621213169.035,21.973,-28.320,-36.621,20.508,0.000
1621213169.039,33.203,-23.926,-35.156,30.273,0.000
1621213169.043,32.715,-24.414,-41.992,20.996,0.000
1621213169.047,20.996,-34.180,-49.805,8.789,0.000
1621213169.051,21.484,-31.738,-46.875,12.695,0.000
1621213169.055,24.902,-23.438,-38.574,13.672,0.000
1621213169.059,22.461,-22.949,-31.738,4.395,0.000
1621213169.063,23.926,-18.555,-25.391,8.301,0.000
1621213169.067,17.578,-22.461,-31.738,6.836,0.000
1621213169.071,9.277,-31.738,-40.039,-9.277,0.000
1621213169.074,8.789,-26.855,-34.668,-5.371,0.000
1621213169.078,10.254,-20.020,-24.414,3.418,0.000
1621213169.082,2.441,-23.926,-23.926,7.812,0.000
1621213169.086,-5.371,-25.879,-28.809,-0.488,0.000
1621213169.090,0.488,-22.461,-32.227,0.000,0.000
1621213169.094,-14.160,-23.926,-35.156,2.441,0.000
1621213169.098,-15.137,-22.949,-31.250,6.348,0.000
1621213169.102,-2.441,-25.879,-26.367,19.043,0.000
1621213169.106,-6.836,-32.227,-26.367,10.742,0.000
1621213169.110,-9.766,-31.250,-26.855,12.207,0.000
1621213169.113,6.836,-34.180,-29.297,20.020,0.000
1621213169.117,6.348,-36.621,-33.203,22.949,0.000
1621213169.121,-3.906,-38.574,-36.133,12.695,0.000
1621213169.125,15.137,-32.715,-34.668,1.953,0.000
1621213169.129,9.766,-28.809,-34.180,14.648,0.000
1621213169.133,-1.953,-30.762,-29.785,14.160,0.000
1621213169.137,2.441,-26.367,-28.320,9.766,0.000
1621213169.141,6.836,-26.367,-38.086,4.395,0.000
1621213169.145,13.184,-26.855,-41.016,-2.930,0.000
1621213169.149,9.766,-30.762,-41.504,5.371,0.000
1621213169.153,19.043,-28.809,-36.133,14.648,0.000
1621213169.156,26.855,-23.438,-27.344,12.207,0.000
1621213169.160,29.297,-23.438,-25.879,14.648,0.000
1621213169.164,34.668,-20.020,-23.438,29.297,0.000
1621213169.168,22.461,-22.949,-20.508,27.344,0.000
1621213169.172,22.949,-30.762,-23.438,15.137,0.000
1621213169.176,9.766,-34.668,-35.156,24.414,0.000
1621213169.180,4.395,-36.133,-38.574,22.461,0.000
1621213169.184,14.160,-37.109,-30.273,14.160,0.000
1621213169.188,2.441,-38.086,-24.902,9.766,0.000
1621213169.192,-4.395,-40.527,-25.879,3.418,0.000
1621213169.195,-3.418,-36.133,-28.320,8.301,0.000
1621213169.199,-8.789,-37.109,-27.832,-5.859,0.000
1621213169.203,-20.996,-40.039,-19.531,-16.602,0.000
1621213169.207,-8.789,-37.109,-22.461,-15.625,0.000
1621213169.211,-9.277,-36.621,-31.738,-12.207,0.000
1621213169.215,-32.227,-37.598,-33.691,-3.418,0.000
1621213169.219,-20.020,-30.273,-33.203,-2.441,0.000
1621213169.223,-16.113,-31.738,-41.992,-18.555,0.000
1621213169.227,-12.695,-33.203,-39.062,-7.812,0.000
1621213169.231,-15.137,-31.738,-33.203,-15.137,0.000
1621213169.235,-34.668,-32.227,-43.457,-27.344,0.000
1621213169.238,-15.137,-39.551,-38.574,-8.301,0.000
1621213169.242,-7.324,-40.039,-35.645,-19.043,0.000
1621213169.246,-16.602,-43.457,-46.387,-21.484,0.000
1621213169.250,-20.020,-54.199,-51.270,-5.859,0.000
1621213169.254,-9.277,-40.039,-42.969,1.953,0.000
1621213169.258,-2.441,-28.809,-33.203,0.000,0.000
1621213169.262,-9.277,-29.785,-32.715,-1.465,0.000
1621213169.266,20.508,-30.273,-38.086,10.742,0.000
1621213169.270,20.996,-36.133,-39.551,15.137,0.000
1621213169.274,-0.488,-50.293,-46.387,-6.836,0.000
1621213169.278,14.648,-49.805,-50.781,-10.254,0.000
1621213169.281,30.762,-25.879,-35.156,15.625,0.000
1621213169.285,35.156,-22.461,-25.879,20.020,0.000
1621213169.289,12.207,-39.551,-37.598,-12.207,0.000
1621213169.293,0.977,-41.504,-44.434,-7.812,0.000
1621213169.297,15.625,-34.180,-39.551,9.766,0.000
1621213169.301,15.625,-35.156,-25.879,18.555,0.000
1621213169.305,12.695,-29.297,-20.020,12.207,0.000
1621213169.309,4.395,-28.320,-30.762,-7.324,0.000
1621213169.313,6.836,-29.785,-35.645,3.906,0.000
1621213169.317,0.488,-33.203,-29.785,7.324,0.000
1621213169.320,-4.395,-40.039,-38.574,-9.277,0.000
1621213169.324,-24.414,-33.691,-43.945,-14.648,0.000
1621213169.328,-24.414,-28.809,-30.762,2.441,0.000
1621213169.332,-2.930,-30.273,-24.902,1.953,0.000
1621213169.336,-6.348,-28.809,-26.855,-4.395,0.000
1621213169.340,-18.066,-26.367,-28.809,-10.742,0.000
1621213169.344,-18.066,-24.414,-29.297,-15.137,0.000
1621213169.348,-8.789,-31.738,-31.250,-3.906,0.000
1621213169.352,-2.930,-33.203,-25.391,-12.207,0.000
1621213169.356,-5.859,-22.949,-30.762,-23.438,0.000
1621213169.360,-30.762,-27.344,-59.570,-22.461,0.000
1621213169.363,-32.715,-36.621,-52.246,-19.531,0.000
1621213169.367,-16.602,-39.062,-30.273,-18.555,0.000
1621213169.371,-27.344,-31.250,-29.785,-12.207,0.000
1621213169.375,-28.809,-20.996,-30.273,-15.625,0.000
1621213169.379,-20.508,-20.508,-28.809,-17.578,0.000
1621213169.383,-37.109,-29.297,-36.133,-14.648,0.000
1621213169.387,-37.109,-34.180,-41.016,-18.066,0.000
1621213169.391,-25.391,-32.715,-24.902,-6.348,0.000
1621213169.395,-25.391,-33.691,-19.043,9.766,0.000
1621213169.399,-3.418,-24.414,-27.832,15.137,0.000
1621213169.403,3.418,-16.113,-33.691,15.137,0.000
1621213169.406,-16.113,-15.625,-33.691,-12.207,0.000
1621213169.410,-19.531,-17.578,-34.668,-28.320,0.000
1621213169.414,-12.695,-27.344,-40.527,-20.508,0.000
1621213169.418,5.859,-26.367,-31.250,-19.531,0.000
1621213169.422,14.160,-19.043,-22.949,-9.766,0.000
1621213169.426,10.254,-21.973,-26.367,-5.859,0.000
1621213169.430,24.414,-13.184,-21.484,11.719,0.000
1621213169.434,23.926,-2.930,-25.391,12.695,0.000
1621213169.438,-5.859,-13.672,-28.320,-26.367,0.000
1621213169.442,-4.883,-22.461,-36.133,-43.945,0.000
1621213169.445,12.207,-14.160,-32.715,-5.371,0.000
1621213169.449,-7.324,-13.184,-22.949,-2.930,0.000
1621213169.453,-13.184,-12.695,-30.273,-41.016,0.000
1621213169.457,1.465,-13.672,-33.203,-20.020,0.000
1621213169.461,0.000,-24.902,-38.574,0.488,0.000
1621213169.465,-5.859,-24.414,-47.852,-17.578,0.000
1621213169.469,-16.602,-17.090,-40.039,-33.203,0.000
1621213169.473,-22.461,-13.672,-38.086,-22.949,0.000
1621213169.477,-3.418,-14.160,-44.434,16.602,0.000
1621213169.481,-8.789,-24.414,-42.480,-7.812,0.000
1621213169.485,-10.742,-24.902,-42.480,-38.574,0.000
1621213169.488,0.977,-22.949,-48.340,-26.367,0.000
1621213169.492,6.836,-27.344,-46.387,-9.277,0.000
1621213169.496,17.090,-23.926,-38.086,0.000,0.000
1621213169.500,-3.418,-20.996,-41.016,4.395,0.000
1621213169.504,-3.418,-18.066,-38.086,16.113,0.000
1621213169.508,4.395,-17.090,-36.133,6.836,0.000
1621213169.512,3.906,-14.648,-38.086,8.301,0.000
1621213169.516,0.000,-20.508,-45.410,28.809,0.000
1621213169.520,6.348,-26.855,-51.270,18.555,0.000
1621213169.524,3.906,-22.461,-44.922,-3.906,0.000
1621213169.528,-12.207,-23.926,-46.387,-0.488,0.000
1621213169.531,-6.836,-20.996,-45.898,20.020,0.000
1621213169.535,3.418,-19.531,-41.504,13.184,0.000
1621213169.539,0.000,-22.461,-40.039,-5.859,0.000
1621213169.543,1.953,-20.020,-44.434,-2.930,0.000
1621213169.547,3.418,-20.508,-49.316,-0.977,0.000
1621213169.551,1.953,-25.391,-43.457,2.441,0.000
1621213169.555,-1.953,-28.809,-47.852,-9.766,0.000
1621213169.559,-11.230,-34.180,-53.223,-22.461,0.000
1621213169.563,2.930,-24.902,-42.969,0.977,0.000
1621213169.567,-1.465,-23.438,-45.898,0.488,0.000
1621213169.570,3.418,-21.484,-49.316,1.465,0.000
1621213169.574,10.254,-19.043,-47.363,9.766,0.000
1621213169.578,5.859,-34.668,-53.223,4.883,0.000
1621213169.582,13.184,-31.738,-47.363,11.719,0.000
1621213169.586,15.625,-24.902,-42.480,23.438,0.000
1621213169.590,8.301,-29.297,-45.410,20.020,0.000
1621213169.594,3.906,-29.297,-38.086,19.531,0.000
1621213169.598,9.277,-29.297,-31.250,27.832,0.000
1621213169.602,15.625,-23.926,-34.180,39.551,0.000
1621213169.606,11.719,-27.832,-37.109,37.598,0.000
1621213169.610,20.996,-26.855,-32.715,35.156,0.000
1621213169.613,26.855,-22.949,-28.809,35.156,0.000
1621213169.617,10.742,-20.508,-34.668,18.555,0.000
1621213169.621,8.789,-15.137,-38.574,1.465,0.000
1621213169.625,6.348,-22.461,-38.574,-1.953,0.000
1621213169.629,9.277,-25.391,-42.969,1.465,0.000
1621213169.633,5.859,-26.855,-43.945,1.953,0.000
1621213169.637,1.953,-24.414,-35.645,-5.859,0.000
1621213169.641,-1.953,-21.973,-32.715,-15.137,0.000
1621213169.645,-9.766,-29.297,-35.645,-20.020,0.000
1621213169.649,-12.207,-29.297,-33.691,-29.297,0.000
1621213169.652,-20.996,-27.832,-38.574,-40.039,0.000
1621213169.656,-18.066,-28.809,-44.922,-47.852,0.000
1621213169.660,-7.812,-23.926,-39.062,-39.551,0.000
1621213169.664,-10.254,-19.043,-37.109,-27.344,0.000
1621213169.668,-5.371,-14.160,-38.086,-21.484,0.000
1621213169.672,8.301,-15.625,-34.668,-25.391,0.000
1621213169.676,-8.301,-27.832,-36.621,-29.297,0.000
1621213169.680,-10.742,-37.598,-47.363,-23.438,0.000
1621213169.684,6.836,-29.785,-39.551,-7.324,0.000
1621213169.688,18.555,-20.996,-25.391,3.906,0.000
1621213169.692,20.996,-17.578,-26.855,12.207,0.000
1621213169.695,27.832,-9.766,-31.250,24.902,0.000
1621213169.699,37.598,-1.465,-29.785,31.250,0.000
1621213169.703,7.324,-17.578,-33.691,25.879,0.000
1621213169.707,22.461,-31.250,-31.250,31.738,0.000
1621213169.711,33.203,-32.715,-27.832,35.156,0.000
1621213169.715,30.273,-32.715,-31.250,24.902,0.000
1621213169.719,42.480,-42.480,-27.832,50.781,0.000
1621213169.723,20.996,-37.598,-30.762,56.641,0.000
1621213169.727,9.766,-12.207,-27.832,21.973,0.000
1621213169.731,12.695,-10.742,-24.902,28.320,0.000
1621213169.735,10.254,-45.410,-43.457,37.109,0.000
1621213169.738,18.555,-54.688,-50.781,35.156,0.000
1621213169.742,35.156,-30.273,-41.016,12.207,0.000
1621213169.746,53.711,-10.254,-26.367,24.902,0.000
1621213169.750,56.152,9.766,-31.738,30.273,0.000
1621213169.754,7.324,-8.789,-49.805,-28.320,0.000
1621213169.758,2.441,-27.344,-46.387,-46.875,0.000
1621213169.762,23.926,-7.812,-24.414,-18.555,0.000
1621213169.766,8.789,-8.301,-38.086,-26.367,0.000
1621213169.770,16.113,-27.832,-61.523,-46.875,0.000
1621213169.774,-13.184,-38.086,-48.340,-23.438,0.000
1621213169.778,11.230,-33.203,-33.691,-5.859,0.000
1621213169.781,14.648,-19.043,-30.273,-12.695,0.000
1621213169.785,-10.742,-16.113,-29.785,0.488,0.000
1621213169.789,-1.465,-15.625,-24.902,-2.441,0.000
1621213169.793,-34.668,-22.949,-20.996,-8.301,0.000
1621213169.797,-45.898,-32.227,-33.691,-10.254,0.000
1621213169.801,-36.133,-34.180,-41.016,-21.973,0.000
1621213169.805,-37.109,-32.227,-28.809,-11.230,0.000
1621213169.809,-1.465,-24.414,-19.531,11.719,0.000
1621213169.813,1.465,-22.949,-23.926,-4.395,0.000
1621213169.817,-8.301,-27.344,-27.832,-7.324,0.000
1621213169.820,-11.230,-36.621,-28.320,-7.324,0.000
1621213169.824,-20.996,-43.945,-24.414,-10.742,0.000
1621213169.828,4.883,-35.645,-13.184,19.043,0.000
1621213169.832,35.645,-27.832,-10.254,34.668,0.000
1621213169.836,29.297,-30.762,-13.672,37.598,0.000
1621213169.840,23.438,-30.273,-11.719,38.574,0.000
1621213169.844,20.996,-35.645,-12.695,29.297,0.000
1621213169.848,20.020,-37.109,-11.230,32.715,0.000
1621213169.852,30.762,-25.391,-9.766,27.832,0.000
1621213169.856,28.809,-29.785,-17.578,16.113,0.000
1621213169.860,17.578,-31.738,-20.508,10.742,0.000
1621213169.863,7.324,-33.691,-23.926,4.883,0.000
1621213169.867,-1.953,-42.480,-25.391,8.789,0.000
1621213169.871,11.719,-31.250,-18.066,3.906,0.000
1621213169.875,14.648,-27.344,-15.137,-4.883,0.000
1621213169.879,-3.418,-31.738,-15.625,-8.301,0.000
1621213169.883,-21.484,-37.109,-22.949,-20.508,0.000
1621213169.887,-20.508,-41.504,-30.762,-27.832,0.000
1621213169.891,-18.555,-34.180,-29.297,-31.738,0.000
1621213169.895,-21.484,-30.762,-23.926,-35.156,0.000
1621213169.899,-37.109,-32.715,-28.320,-51.270,0.000
1621213169.902,-45.410,-32.227,-39.062,-58.105,0.000
1621213169.906,-41.016,-37.109,-37.109,-51.758,0.000
1621213169.910,-43.945,-35.156,-30.762,-37.598,0.000
1621213169.914,-31.250,-29.785,-26.367,-8.789,0.000
1621213169.918,-17.578,-35.645,-21.484,-10.742,0.000
1621213169.922,-20.508,-28.809,-18.066,-31.250,0.000
1621213169.926,-25.879,-22.461,-20.508,-33.691,0.000
1621213169.930,-40.039,-27.832,-26.855,-40.039,0.000
1621213169.934,-34.668,-19.531,-24.902,-33.203,0.000
1621213169.938,-18.555,-10.742,-26.367,-16.602,0.000
1621213169.942,-14.648,-4.883,-31.738,-17.578,0.000
1621213169.945,-31.250,-12.695,-27.344,-12.695,0.000
1621213169.949,-41.504,-20.508,-30.273,-29.785,0.000
1621213169.953,-28.809,-10.254,-44.922,-37.109,0.000
1621213169.957,-35.156,-11.719,-42.480,-18.066,0.000
1621213169.961,-37.598,-15.625,-29.785,-25.879,0.000
1621213169.965,-20.996,-8.301,-37.598,-25.879,0.000
1621213169.969,-7.324,0.000,-42.480,-19.043,0.000
1621213169.973,-17.578,-2.441,-37.598,-26.855,0.000
1621213169.977,-29.785,-8.789,-45.410,-28.809,0.000
1621213169.981,-21.973,-10.254,-54.199,-17.578,0.000
1621213169.985,-17.090,-7.324,-47.852,-17.578,0.000
1621213169.988,-21.973,-11.719,-39.551,-23.438,0.000
1621213169.992,-17.090,-10.742,-45.898,-32.715,0.000
1621213169.996,-23.438,-10.254,-54.688,-43.457,0.000
1621213170.000,-23.926,-22.461,-45.898,-29.297,0.000
1621213170.004,-31.250,-29.785,-42.480,-31.738,0.000
1621213170.008,-27.832,-25.391,-44.922,-37.109,0.000
1621213170.012,-21.484,-11.719,-44.922,-25.391,0.000
1621213170.016,-37.598,-16.602,-43.457,-29.297,0.000
1621213170.020,-45.410,-23.438,-48.340,-40.039,0.000
1621213170.024,-27.344,-20.020,-52.734,-33.691,0.000
1621213170.027,-6.836,-15.137,-48.340,-7.812,0.000
1621213170.031,-5.859,-15.625,-43.945,3.906,0.000
1621213170.035,-22.949,-20.996,-44.922,-11.230,0.000
1621213170.039,-18.555,-24.414,-53.223,-14.648,0.000
1621213170.043,-3.906,-20.508,-51.270,-2.441,0.000
1621213170.047,-19.043,-15.137,-43.945,-6.348,0.000
1621213170.051,-36.621,-21.973,-46.387,-25.391,0.000
1621213170.055,-27.832,-28.320,-46.875,-20.020,0.000
1621213170.059,-5.859,-27.344,-48.828,2.441,0.000
1621213170.063,5.859,-20.508,-42.969,18.066,0.000
1621213170.067,-3.906,-15.137,-37.598,7.324,0.000
1621213170.070,-17.578,-22.461,-43.457,-10.254,0.000
1621213170.074,2.441,-24.414,-40.527,7.324,0.000
1621213170.078,14.648,-21.484,-45.898,13.672,0.000
1621213170.082,11.719,-26.367,-44.434,9.277,0.000
1621213170.086,15.137,-26.367,-44.922,21.973,0.000
1621213170.090,12.695,-20.996,-51.758,15.625,0.000
1621213170.094,8.301,-23.926,-46.875,0.000,0.000
1621213170.098,23.926,-22.461,-41.992,10.254,0.000
1621213170.102,21.484,-17.090,-38.574,14.160,0.000
1621213170.106,6.348,-22.949,-44.434,6.348,0.000
1621213170.110,0.000,-31.250,-52.734,-8.301,0.000
1621213170.113,7.324,-24.414,-50.293,-4.883,0.000
1621213170.117,6.836,-14.160,-42.480,9.277,0.000
1621213170.121,10.254,-12.695,-38.574,5.371,0.000
1621213170.125,21.973,-15.137,-41.016,-0.488,0.000
1621213170.129,4.395,-16.113,-35.156,2.930,0.000
1621213170.133,-2.930,-17.578,-29.785,0.977,0.000
1621213170.137,-2.930,-26.855,-44.922,-14.648,0.000
1621213170.141,-12.207,-28.320,-46.875,-20.508,0.000
1621213170.145,-1.465,-25.391,-43.945,-14.648,0.000
1621213170.149,9.766,-23.438,-36.621,5.859,0.000
1621213170.152,19.043,-15.625,-24.902,20.020,0.000
1621213170.156,12.695,-15.625,-34.668,1.465,0.000
1621213170.160,16.113,-24.414,-38.086,-5.371,0.000
1621213170.164,21.973,-34.668,-41.992,16.602,0.000
1621213170.168,14.160,-41.504,-46.387,27.344,0.000
1621213170.172,35.156,-26.367,-33.203,30.273,0.000
1621213170.176,23.438,-19.531,-31.250,15.137,0.000
1621213170.180,15.625,-27.344,-35.645,9.766,0.000
1621213170.184,26.855,-29.785,-30.762,32.227,0.000
1621213170.188,24.902,-25.879,-25.391,28.320,0.000
1621213170.192,18.555,-28.320,-33.203,16.113,0.000
1621213170.195,5.859,-40.527,-40.527,4.883,0.000
1621213170.199,3.418,-29.785,-41.992,21.484,0.000
1621213170.203,34.668,-15.137,-35.645,25.391,0.000
1621213170.207,43.457,-23.926,-33.691,16.113,0.000
1621213170.211,21.973,-27.832,-40.039,20.996,0.000
1621213170.215,5.859,-31.250,-37.109,8.789,0.000
1621213170.219,-13.184,-38.086,-44.922,-5.859,0.000
1621213170.223,-14.648,-37.109,-46.875,-8.301,0.000
1621213170.227,-13.184,-27.832,-38.574,-1.953,0.000
1621213170.231,1.465,-23.926,-35.645,0.977,0.000
1621213170.234,4.883,-26.855,-41.016,-4.395,0.000
1621213170.238,-0.488,-29.297,-42.969,-11.230,0.000
1621213170.242,-13.184,-46.875,-46.387,-19.043,0.000
1621213170.246,-17.578,-50.781,-61.035,-36.133,0.000
1621213170.250,10.742,-30.762,-49.316,-8.789,0.000
1621213170.254,12.207,-27.832,-30.762,13.184,0.000
1621213170.258,-8.789,-36.133,-37.598,-11.230,0.000
1621213170.262,-17.090,-36.133,-46.387,-16.602,0.000
1621213170.266,-8.789,-24.414,-42.969,9.277,0.000
1621213170.270,-24.902,-27.832,-46.875,11.230,0.000
1621213170.274,-24.902,-36.133,-42.969,-1.953,0.000
1621213170.277,-18.066,-30.273,-31.250,0.977,0.000
1621213170.281,-3.418,-27.344,-28.320,22.949,0.000
1621213170.285,10.254,-22.461,-31.250,28.809,0.000
1621213170.289,2.441,-23.926,-45.410,9.277,0.000
1621213170.293,-12.207,-31.738,-48.828,-9.766,0.000
1621213170.297,-9.766,-31.250,-40.039,-1.465,0.000
1621213170.301,8.301,-18.066,-40.039,2.930,0.000
1621213170.305,3.418,-13.672,-39.551,-11.719,0.000
1621213170.309,-6.348,-22.949,-34.180,-6.348,0.000
1621213170.313,-2.930,-28.809,-37.109,-0.977,0.000
1621213170.317,-9.277,-20.508,-41.016,-5.371,0.000
1621213170.320,-16.602,-25.879,-41.504,-4.883,0.000
1621213170.324,-31.738,-32.227,-43.945,-16.113,0.000
1621213170.328,-15.625,-29.297,-42.480,-23.926,0.000
1621213170.332,1.953,-29.297,-34.180,-10.742,0.000
1621213170.336,-23.926,-31.250,-42.969,-20.020,0.000
1621213170.340,-51.758,-36.133,-41.992,-47.363,0.000
1621213170.344,-93.262,-36.621,-36.133,-49.316,0.000
1621213170.348,-46.875,-33.691,-42.480,-24.414,0.000
1621213170.352,2.441,-20.020,-40.527,-19.043,0.000
1621213170.356,0.488,-17.578,-36.621,-30.273,0.000
1621213170.359,-3.418,-21.484,-33.203,-26.367,0.000
1621213170.363,-19.043,-28.809,-34.180,-11.719,0.000
1621213170.367,-39.551,-41.016,-48.828,-20.020,0.000
1621213170.371,-41.016,-48.340,-38.574,-36.133,0.000
1621213170.375,-20.996,-31.250,-24.902,-20.020,0.000
1621213170.379,-25.391,-26.855,-29.297,-4.395,0.000
1621213170.383,3.418,-36.621,-20.508,5.371,0.000
1621213170.387,16.113,-25.879,-23.438,-7.812,0.000
1621213170.391,-18.555,-27.832,-28.320,-19.531,0.000
1621213170.395,-14.648,-23.438,-15.137,-9.277,0.000
1621213170.399,-1.953,-18.066,-13.184,-7.324,0.000
1621213170.402,-26.367,-24.414,-29.785,-9.277,0.000
1621213170.406,-40.527,-20.996,-33.203,-27.832,0.000
1621213170.410,-25.391,-20.020,-24.902,-23.438,0.000
1621213170.414,-14.648,-19.043,-18.066,2.930,0.000
1621213170.418,-20.020,-16.113,-23.438,-9.766,0.000
1621213170.422,-40.527,-20.020,-30.762,-42.969,0.000
1621213170.426,-55.664,-11.230,-37.109,-47.852,0.000
1621213170.430,-42.969,-12.695,-41.992,-30.273,0.000
1621213170.434,-27.344,-17.578,-38.574,-20.020,0.000
1621213170.438,-41.504,-11.719,-29.297,-15.625,0.000
1621213170.442,-39.062,-16.602,-18.066,-20.996,0.000
1621213170.445,-19.043,-15.137,-14.160,-13.672,0.000
1621213170.449,-29.785,-16.113,-20.020,-20.508,0.000
1621213170.453,-60.059,-21.484,-35.645,-48.828,0.000
1621213170.457,-62.012,-12.207,-33.203,-44.434,0.000
1621213170.461,-41.504,-11.719,-21.484,-38.086,0.000
1621213170.465,-41.016,-24.414,-13.184,-42.969,0.000
1621213170.469,-28.320,-20.508,-16.602,-28.809,0.000
1621213170.473,-30.273,-13.672,-30.273,-41.992,0.000
1621213170.477,-47.363,-20.508,-41.992,-45.410,0.000
1621213170.481,-16.602,-20.508,-36.621,-20.020,0.000
1621213170.484,-1.465,-11.719,-39.062,-18.066,0.000
1621213170.488,-21.484,-16.602,-36.133,-35.645,0.000
1621213170.492,-8.789,-15.137,-26.855,-30.273,0.000
1621213170.496,-8.301,-12.695,-37.598,-20.508,0.000
1621213170.500,-26.855,-15.137,-37.109,-20.508,0.000
1621213170.504,-18.066,-13.672,-37.109,-24.902,0.000
1621213170.508,-3.906,-20.996,-47.363,-28.809,0.000
1621213170.512,2.441,-24.414,-45.898,-14.160,0.000
1621213170.516,14.648,-18.066,-38.574,13.184,0.000
1621213170.520,11.719,-20.996,-41.504,12.207,0.000
1621213170.524,-8.789,-26.855,-43.945,-12.695,0.000
1621213170.527,-19.531,-29.785,-45.410,-22.461,0.000
1621213170.531,-6.348,-23.926,-41.992,1.953,0.000
1621213170.535,7.812,-18.555,-42.969,13.672,0.000
1621213170.539,-11.230,-27.344,-45.898,9.766,0.000
1621213170.543,-15.137,-34.180,-41.504,-7.812,0.000
1621213170.547,-7.812,-21.973,-39.551,-2.930,0.000
1621213170.551,2.441,-24.414,-36.621,13.672,0.000
1621213170.555,7.324,-44.434,-40.039,13.184,0.000
1621213170.559,-7.324,-45.410,-32.715,4.883,0.000
1621213170.563,-7.324,-38.574,-32.227,9.766,0.000
1621213170.566,-12.695,-40.527,-46.875,8.301,0.000
1621213170.570,-6.836,-38.086,-42.480,-20.508,0.000
1621213170.574,-1.465,-39.062,-41.016,3.418,0.000
1621213170.578,-1.465,-50.293,-32.715,26.855,0.000
1621213170.582,13.672,-48.828,-41.992,9.766,0.000
1621213170.586,18.555,-43.945,-53.711,5.371,0.000
1621213170.590,8.301,-40.039,-46.875,-9.766,0.000
1621213170.594,1.465,-36.621,-41.504,-13.672,0.000
1621213170.598,16.113,-40.527,-41.992,10.254,0.000
1621213170.602,31.738,-40.039,-37.598,18.066,0.000
1621213170.606,9.277,-39.551,-39.551,2.930,0.000
1621213170.609,-21.484,-54.199,-51.270,-2.930,0.000
1621213170.613,-11.230,-52.734,-44.922,8.789,0.000
1621213170.617,9.277,-36.133,-39.062,27.344,0.000
1621213170.621,12.695,-38.086,-46.387,25.879,0.000
1621213170.625,12.695,-41.504,-39.551,11.719,0.000
1621213170.629,23.926,-37.598,-36.621,20.996,0.000
1621213170.633,18.555,-33.203,-33.691,-2.441,0.000
1621213170.637,18.066,-37.598,-31.250,5.859,0.000
1621213170.641,24.902,-37.109,-40.039,24.414,0.000
1621213170.645,-1.953,-32.715,-39.551,11.230,0.000
1621213170.649,4.395,-34.668,-39.062,18.066,0.000
1621213170.652,13.184,-31.250,-33.691,20.508,0.000
1621213170.656,0.000,-29.785,-36.621,2.930,0.000
1621213170.660,0.000,-41.016,-32.227,3.906,0.000
1621213170.664,0.000,-32.715,-23.438,18.066,0.000
1621213170.668,8.789,-19.531,-25.391,24.902,0.000
1621213170.672,19.531,-25.391,-23.438,32.715,0.000
1621213170.676,16.113,-29.297,-18.555,23.926,0.000
1621213170.680,1.465,-28.320,-27.344,21.484,0.000
1621213170.684,7.812,-20.020,-39.062,5.859,0.000
1621213170.688,18.555,-22.461,-34.668,0.488,0.000
1621213170.691,19.531,-23.438,-29.297,17.090,0.000
1621213170.695,6.836,-24.414,-30.273,15.625,0.000
1621213170.699,2.441,-25.879,-28.809,10.254,0.000
1621213170.703,11.719,-22.461,-29.785,21.973,0.000
1621213170.707,7.812,-22.949,-33.691,9.277,0.000
1621213170.711,0.000,-25.391,-35.645,-4.395,0.000
1621213170.715,1.465,-28.320,-33.203,10.742,0.000
1621213170.719,11.230,-26.367,-30.273,11.230,0.000
1621213170.723,4.883,-20.508,-28.320,-7.812,0.000
1621213170.727,13.184,-20.508,-30.762,-0.977,0.000
1621213170.731,1.953,-32.227,-36.621,12.695,0.000
1621213170.734,-13.184,-37.109,-38.086,10.254,0.000
1621213170.738,-12.695,-31.250,-36.621,-4.883,0.000
1621213170.742,-14.648,-21.484,-35.156,-10.254,0.000
1621213170.746,-15.625,-27.344,-28.320,13.672,0.000
1621213170.750,-20.508,-36.133,-35.156,10.254,0.000
1621213170.754,-7.324,-30.273,-34.668,-0.488,0.000
1621213170.758,-17.578,-34.180,-39.062,-22.461,0.000
1621213170.762,-23.926,-30.762,-47.363,-26.855,0.000
1621213170.766,-0.488,-28.809,-38.086,-11.230,0.000
1621213170.770,-7.324,-25.391,-29.785,-5.371,0.000
1621213170.773,-6.348,-15.625,-35.156,24.414,0.000
1621213170.777,33.691,-13.672,-35.645,6.348,0.000
1621213170.781,22.461,-22.461,-32.715,-12.695,0.000
1621213170.785,-4.395,-30.273,-32.715,26.367,0.000
1621213170.789,15.625,-29.297,-29.297,28.809,0.000
1621213170.793,31.738,-17.090,-35.156,13.672,0.000
1621213170.797,12.695,-15.137,-36.133,-0.977,0.000
1621213170.801,2.930,-34.668,-22.949,11.230,0.000
1621213170.805,10.254,-45.410,-19.531,51.270,0.000
1621213170.809,-0.488,-31.250,-26.367,21.973,0.000
1621213170.813,7.812,-20.020,-27.832,4.395,0.000
1621213170.816,7.812,-30.273,-36.133,14.648,0.000
1621213170.820,2.441,-26.367,-37.109,-11.719,0.000
1621213170.824,12.695,-24.414,-29.785,-2.930,0.000
1621213170.828,23.926,-33.691,-21.973,29.785,0.000
1621213170.832,5.859,-26.367,-25.879,11.719,0.000
1621213170.836,-20.508,-15.137,-28.320,-23.438,0.000
1621213170.840,-34.180,-15.137,-32.715,-55.664,0.000
1621213170.844,-35.156,-27.344,-44.922,-74.219,0.000
1621213170.848,-37.598,-31.250,-30.762,-63.965,0.000
1621213170.852,-49.316,-22.461,-23.438,-48.828,0.000
1621213170.856,-47.852,-34.668,-25.879,-72.754,0.000
1621213170.859,-26.855,-36.621,-25.879,-60.059,0.000
1621213170.863,-32.715,-26.855,-33.691,-48.340,0.000
1621213170.867,-40.527,-20.508,-35.645,-91.309,0.000
1621213170.871,-40.527,-20.508,-25.879,-83.984,0.000
1621213170.875,-61.523,-22.949,-13.672,-48.828,0.000
1621213170.879,-50.781,-13.672,-17.090,-48.340,0.000
1621213170.883,-13.672,-21.973,-30.762,-38.086,0.000
1621213170.887,-31.250,-29.297,-28.320,-40.527,0.000
1621213170.891,-63.965,-19.531,-28.809,-77.637,0.000
1621213170.895,-35.645,-16.602,-34.180,-55.176,0.000
1621213170.898,-1.953,-14.160,-29.297,-18.555,0.000
1621213170.902,-18.066,-22.461,-19.531,-26.855,0.000
1621213170.906,-12.207,-17.090,-24.414,-52.246,0.000
1621213170.910,19.043,-7.324,-29.297,-28.809,0.000
1621213170.914,-17.578,-11.719,-34.668,-25.391,0.000
1621213170.918,-46.875,-16.602,-35.156,-56.641,0.000
1621213170.922,-52.246,-12.207,-43.457,-58.105,0.000
1621213170.926,-56.152,-18.555,-39.551,-44.434,0.000
1621213170.930,-53.711,-27.344,-25.391,-34.668,0.000
1621213170.934,-31.738,-12.695,-40.039,-4.395,0.000
1621213170.938,-2.441,-9.766,-38.574,-26.855,0.000
1621213170.941,-51.758,-23.438,-30.273,-69.336,0.000
1621213170.945,-69.824,-25.879,-34.180,-56.152,0.000
1621213170.949,-74.219,-39.551,-32.715,-49.805,0.000
1621213170.953,-93.750,-38.086,-32.227,-42.969,0.000
1621213170.957,-70.801,-32.227,-32.715,-63.965,0.000
1621213170.961,-76.172,-36.133,-31.738,-71.777,0.000
1621213170.965,-74.707,-31.250,-31.250,-42.480,0.000
1621213170.969,-67.383,-33.203,-31.250,-39.551,0.000
1621213170.973,-79.102,-32.227,-31.250,-31.738,0.000
1621213170.977,-45.898,-30.273,-28.809,-17.090,0.000
1621213170.981,-29.785,-29.785,-22.949,-13.672,0.000
1621213170.984,-72.266,-27.832,-23.926,-21.973,0.000
1621213170.988,-71.777,-35.156,-33.203,-16.113,0.000
1621213170.992,-48.340,-41.992,-33.203,-16.602,0.000
1621213170.996,-27.832,-35.156,-31.738,-7.324,0.000
1621213171.000,-17.090,-24.902,-41.504,-0.977,0.000
1621213171.004,-32.715,-28.320,-36.133,-28.320,0.000
1621213171.008,-19.043,-29.785,-29.785,-22.949,0.000
1621213171.012,-19.043,-36.133,-28.809,-13.184,0.000
1621213171.016,-43.945,-38.574,-29.785,-26.367,0.000
1621213171.020,-48.340,-33.691,-33.691,-24.414,0.000
1621213171.023,-4.883,-30.273,-31.738,-21.973,0.000
1621213171.027,6.348,-26.855,-30.762,-15.625,0.000
1621213171.031,-26.367,-29.297,-39.551,-4.883,0.000
1621213171.035,-42.480,-41.504,-41.992,-6.348,0.000
1621213171.039,-39.551,-43.457,-40.527,13.184,0.000
1621213171.043,-13.184,-32.227,-41.016,0.488,0.000
1621213171.047,2.930,-33.691,-38.574,-23.438,0.000
1621213171.051,9.766,-33.691,-37.598,-5.859,0.000
1621213171.055,2.930,-28.809,-33.691,14.160,0.000
1621213171.059,24.414,-25.879,-34.668,18.555,0.000
1621213171.063,9.277,-25.391,-41.992,-9.766,0.000
1621213171.066,-40.527,-32.227,-31.250,0.488,0.000
1621213171.070,-14.648,-30.762,-32.715,4.395,0.000
1621213171.074,3.906,-33.691,-38.086,-21.484,0.000
1621213171.078,-10.254,-38.086,-28.320,-20.508,0.000
1621213171.082,-23.926,-33.691,-36.133,5.371,0.000
1621213171.086,-32.715,-30.273,-53.223,-27.344,0.000
1621213171.090,-65.430,-35.645,-57.617,-72.266,0.000
1621213171.094,-42.480,-32.715,-56.641,-55.176,0.000
1621213171.098,11.230,-30.273,-51.270,-42.969,0.000
1621213171.102,-26.367,-38.574,-43.457,-25.391,0.000
1621213171.105,-64.453,-32.227,-43.945,-45.898,0.000
1621213171.109,-74.707,-31.738,-47.363,-63.965,0.000
1621213171.113,-60.059,-35.645,-46.387,-39.551,0.000
1621213171.117,-43.945,-22.461,-37.109,-30.273,0.000
1621213171.121,-49.316,-22.461,-41.016,-56.152,0.000
1621213171.125,-43.945,-33.691,-44.922,-54.199,0.000
1621213171.129,-45.410,-40.039,-35.645,-27.832,0.000
1621213171.133,-60.547,-32.715,-41.504,-41.504,0.000
1621213171.137,-50.781,-31.738,-39.062,-43.457,0.000
1621213171.141,-44.922,-35.156,-33.203,-26.367,0.000
1621213171.145,-58.594,-32.715,-36.621,-47.363,0.000
1621213171.148,-53.223,-31.738,-41.504,-64.941,0.000
1621213171.152,-54.688,-36.621,-44.922,-55.176,0.000
1621213171.156,-46.387,-35.156,-34.668,-31.738,0.000
1621213171.160,-35.156,-36.133,-24.902,-26.855,0.000
1621213171.164,-38.086,-40.039,-24.414,-22.461,0.000
1621213171.168,-43.457,-28.320,-29.785,-9.277,0.000
1621213171.172,-83.496,-31.738,-37.598,-51.270,0.000
1621213171.176,-76.172,-31.250,-38.086,-72.754,0.000
1621213171.180,-35.156,-20.020,-40.527,-55.176,0.000
1621213171.184,-30.273,-25.879,-41.016,-28.809,0.000
1621213171.188,-59.570,-34.668,-34.668,-17.090,0.000
1621213171.191,-74.707,-33.691,-39.551,-47.363,0.000
1621213171.195,-33.691,-26.855,-43.945,-40.039,0.000
1621213171.199,-10.254,-23.926,-43.457,-15.625,0.000
1621213171.203,-32.715,-31.250,-42.969,-18.555,0.000
1621213171.207,-37.109,-30.273,-45.898,-38.086,0.000
1621213171.211,-46.387,-29.785,-37.109,-31.738,0.000
1621213171.215,-38.574,-27.344,-31.250,-10.742,0.000
1621213171.219,-24.902,-27.344,-33.203,4.395,0.000
1621213171.223,-18.066,-30.273,-25.391,9.277,0.000
1621213171.227,-22.461,-26.367,-30.762,-10.254,0.000
1621213171.230,-32.715,-34.180,-36.133,-6.348,0.000
1621213171.234,-30.762,-39.062,-38.574,-10.742,0.000
1621213171.238,-47.363,-35.156,-37.598,-22.461,0.000
1621213171.242,-47.363,-41.016,-36.621,-30.273,0.000
1621213171.246,-34.180,-41.016,-46.387,-27.344,0.000
1621213171.250,-49.805,-31.250,-41.016,-28.320,0.000
1621213171.254,-52.246,-30.762,-33.691,-32.227,0.000
1621213171.258,-47.363,-34.668,-41.504,-36.621,0.000
1621213171.262,-59.082,-35.156,-42.480,-46.875,0.000
1621213171.266,-54.688,-36.133,-43.457,-43.945,0.000
1621213171.270,-37.598,-39.062,-41.992,-34.668,0.000
1621213171.273,-26.367,-37.109,-37.109,-32.227,0.000
1621213171.277,-40.039,-44.922,-49.805,-37.109,0.000
1621213171.281,-34.668,-38.574,-51.270,-23.438,0.000
1621213171.285,-6.836,-25.391,-41.016,-15.137,0.000
1621213171.289,4.395,-26.855,-41.016,-20.020,0.000
1621213171.293,6.348,-27.344,-43.457,-18.066,0.000
1621213171.297,10.254,-30.762,-42.480,-3.906,0.000
1621213171.301,9.766,-33.691,-42.480,6.348,0.000
1621213171.305,7.812,-39.062,-49.805,8.301,0.000
1621213171.309,14.160,-31.738,-46.387,-3.418,0.000
1621213171.313,9.766,-26.367,-39.062,10.254,0.000
1621213171.316,10.742,-32.715,-40.527,29.785,0.000
1621213171.320,19.531,-30.762,-43.945,33.203,0.000
1621213171.324,15.625,-34.180,-42.969,20.020,0.000
1621213171.328,4.395,-36.133,-35.156,7.324,0.000
1621213171.332,4.395,-33.203,-36.621,11.719,0.000
1621213171.336,17.578,-27.832,-40.039,19.531,0.000
1621213171.340,-1.953,-34.180,-43.945,12.695,0.000
1621213171.344,-9.766,-44.434,-50.781,-14.648,0.000
1621213171.348,15.625,-33.691,-42.480,3.418,0.000
1621213171.352,10.742,-32.715,-41.504,10.742,0.000
1621213171.355,3.418,-41.992,-45.898,-3.906,0.000
1621213171.359,21.973,-36.621,-43.945,2.930,0.000
1621213171.363,26.855,-31.738,-41.504,0.000,0.000
1621213171.367,19.043,-30.762,-40.039,17.578,0.000
1621213171.371,18.555,-19.043,-36.621,27.832,0.000
1621213171.375,16.602,-13.184,-34.668,3.906,0.000
1621213171.379,12.207,-20.020,-36.621,5.859,0.000
1621213171.383,15.137,-25.391,-38.574,24.902,0.000
1621213171.387,15.625,-30.762,-41.016,25.879,0.000
1621213171.391,9.277,-27.344,-41.504,11.230,0.000
1621213171.395,24.902,-23.926,-41.504,19.043,0.000
1621213171.398,30.762,-25.879,-50.293,24.902,0.000
1621213171.402,23.438,-27.832,-47.363,20.996,0.000
1621213171.406,32.227,-26.855,-36.621,20.996,0.000
1621213171.410,30.762,-27.832,-37.109,22.949,0.000
1621213171.414,32.715,-31.250,-40.039,25.391,0.000
1621213171.418,29.297,-29.297,-39.551,27.832,0.000
1621213171.422,22.461,-31.738,-43.457,20.996,0.000
1621213171.426,25.391,-43.457,-47.852,13.184,0.000
1621213171.430,38.574,-43.457,-37.598,29.297,0.000
1621213171.434,41.504,-31.738,-28.320,43.457,0.000
1621213171.438,33.203,-38.574,-39.062,36.621,0.000
1621213171.441,32.227,-41.504,-44.922,21.484,0.000
1621213171.445,28.809,-31.738,-40.527,19.043,0.000
1621213171.449,26.367,-31.250,-47.363,16.113,0.000
1621213171.453,14.648,-41.016,-50.293,8.301,0.000
1621213171.457,10.254,-40.527,-41.504,18.555,0.000
1621213171.461,12.695,-36.621,-37.598,24.414,0.000
1621213171.465,11.719,-41.504,-39.062,21.484,0.000
1621213171.469,15.625,-41.016,-37.109,25.391,0.000
1621213171.473,5.371,-40.039,-30.273,28.320,0.000
1621213171.477,-9.277,-44.922,-36.621,24.902,0.000
1621213171.480,-8.301,-52.734,-43.945,21.484,0.000
1621213171.484,-9.277,-47.852,-38.574,30.762,0.000
1621213171.488,-2.930,-41.016,-38.574,49.805,0.000
1621213171.492,9.277,-41.992,-37.598,57.617,0.000
1621213171.496,0.000,-36.621,-38.574,33.691,0.000
1621213171.500,0.000,-32.715,-43.457,54.199,0.000
1621213171.504,-2.930,-44.434,-50.781,39.062,0.000
1621213171.508,2.930,-42.969,-44.922,1.465,0.000
1621213171.512,20.020,-33.203,-38.086,22.949,0.000
1621213171.516,23.438,-36.621,-48.828,12.207,0.000
1621213171.520,18.066,-43.945,-51.270,15.625,0.000
1621213171.523,5.371,-43.945,-47.363,25.879,0.000
1621213171.527,13.184,-40.527,-50.781,-6.836,0.000
1621213171.531,33.203,-34.180,-45.410,-22.461,0.000
1621213171.535,47.363,-29.785,-47.852,-27.344,0.000
1621213171.539,46.875,-24.902,-45.898,-25.391,0.000
1621213171.543,30.762,-30.273,-45.898,-34.668,0.000
1621213171.547,1.465,-34.668,-50.293,-43.457,0.000
1621213171.551,-19.043,-29.785,-41.992,-46.387,0.000
1621213171.555,-15.137,-29.785,-40.527,-41.504,0.000
1621213171.559,-30.762,-24.414,-41.504,-51.270,0.000
1621213171.562,-56.641,-26.367,-42.969,-61.035,0.000
1621213171.566,-32.715,-26.367,-43.457,-48.340,0.000
1621213171.570,4.395,-13.672,-33.691,-41.992,0.000
1621213171.574,-28.809,-14.648,-28.809,-39.062,0.000
1621213171.578,-52.246,-18.066,-31.250,-44.434,0.000
1621213171.582,-37.598,-17.578,-26.855,-43.945,0.000
1621213171.586,-40.039,-29.785,-26.367,-64.941,0.000
1621213171.590,-49.805,-32.227,-24.902,-69.824,0.000
1621213171.594,-55.176,-23.926,-18.066,-41.504,0.000
1621213171.598,-63.477,-24.414,-22.949,-36.133,0.000
1621213171.602,-62.500,-29.785,-25.879,-41.016,0.000
1621213171.605,-80.566,-39.062,-24.902,-54.688,0.000
1621213171.609,-97.168,-38.574,-31.738,-54.688,0.000
1621213171.613,-65.430,-30.273,-33.203,-36.621,0.000
1621213171.617,-20.508,-26.855,-25.391,-19.531,0.000
1621213171.621,-27.344,-30.273,-26.855,-27.344,0.000
1621213171.625,-28.320,-31.738,-35.156,-33.691,0.000
1621213171.629,-15.137,-22.949,-35.156,-4.883,0.000
1621213171.633,-23.438,-22.461,-32.227,0.977,0.000
1621213171.637,-25.391,-29.785,-36.133,-9.766,0.000
1621213171.641,-18.066,-24.414,-43.457,-4.883,0.000
1621213171.645,-8.789,-21.973,-37.109,8.301,0.000
1621213171.648,-13.672,-30.762,-44.922,1.953,0.000
1621213171.652,-2.930,-36.133,-54.688,-0.977,0.000
1621213171.656,21.484,-23.438,-43.945,17.090,0.000
1621213171.660,36.133,-20.508,-43.457,20.508,0.000
1621213171.664,25.391,-31.250,-50.293,10.742,0.000
1621213171.668,18.066,-28.320,-56.641,6.348,0.000
1621213171.672,34.668,-17.578,-58.105,10.742,0.000
1621213171.676,27.832,-16.602,-55.176,10.742,0.000
1621213171.680,16.113,-26.855,-56.152,16.602,0.000
1621213171.684,23.926,-29.297,-60.059,23.438,0.000
1621213171.687,16.113,-35.645,-67.383,10.742,0.000
1621213171.691,25.391,-28.320,-54.199,11.719,0.000
1621213171.695,31.250,-25.879,-47.852,25.879,0.000
1621213171.699,19.043,-34.180,-54.199,25.391,0.000
1621213171.703,22.949,-27.832,-47.363,27.344,0.000
1621213171.707,28.320,-25.879,-42.480,25.391,0.000
1621213171.711,17.090,-26.367,-42.969,20.020,0.000
1621213171.715,6.348,-29.297,-45.410,23.438,0.000
1621213171.719,12.695,-35.156,-45.898,19.043,0.000
1621213171.723,21.484,-31.250,-41.016,16.602,0.000
1621213171.727,14.160,-28.320,-37.598,25.391,0.000
1621213171.730,7.324,-32.715,-44.922,29.297,0.000
1621213171.734,13.184,-35.156,-49.805,27.832,0.000
1621213171.738,23.438,-35.156,-46.387,22.949,0.000
1621213171.742,24.414,-33.203,-46.387,23.926,0.000
1621213171.746,20.508,-34.668,-46.387,25.879,0.000
1621213171.750,27.832,-33.691,-42.969,23.438,0.000
1621213171.754,25.391,-34.668,-47.363,25.879,0.000
1621213171.758,16.113,-35.645,-49.805,29.297,0.000
1621213171.762,23.926,-34.668,-52.246,32.715,0.000
1621213171.766,15.625,-36.133,-54.688,32.715,0.000
1621213171.770,7.324,-38.086,-55.176,21.973,0.000
1621213171.773,15.625,-38.574,-52.734,16.602,0.000
1621213171.777,2.441,-39.062,-57.129,2.930,0.000
1621213171.781,4.395,-41.504,-51.758,0.000,0.000
1621213171.785,24.902,-35.645,-38.574,22.949,0.000
1621213171.789,34.180,-30.762,-42.480,21.973,0.000
1621213171.793,42.480,-24.902,-41.992,14.160,0.000
1621213171.797,21.484,-32.715,-50.293,8.789,0.000
1621213171.801,11.719,-39.551,-51.758,5.371,0.000
1621213171.805,20.996,-34.668,-36.133,3.418,0.000
1621213171.809,21.973,-20.508,-32.715,0.977,0.000
1621213171.812,9.277,-23.438,-39.551,-16.113,0.000
1621213171.816,-7.324,-46.387,-52.246,-24.902,0.000
1621213171.820,3.906,-33.203,-39.062,-2.441,0.000
1621213171.824,13.672,-20.020,-32.715,-1.953,0.000
1621213171.828,6.348,-26.855,-42.480,-7.324,0.000
1621213171.832,-0.488,-23.926,-42.480,-0.488,0.000
1621213171.836,-13.184,-26.855,-44.922,-2.930,0.000
1621213171.840,-8.789,-21.973,-38.574,2.930,0.000
1621213171.844,-4.883,-26.367,-31.250,7.324,0.000
1621213171.848,-24.902,-42.969,-37.598,-8.301,0.000
1621213171.852,-12.207,-28.809,-33.203,-2.441,0.000
1621213171.855,7.812,-11.719,-15.625,1.465,0.000
1621213171.859,-7.812,-13.184,-23.438,-18.555,0.000
1621213171.863,-21.973,-21.973,-39.062,-19.043,0.000
1621213171.867,-26.855,-22.461,-37.598,-23.438,0.000
1621213171.871,-35.156,-22.949,-38.574,-31.738,0.000
1621213171.875,-23.438,-17.090,-34.180,-39.551,0.000
1621213171.879,-19.043,-13.672,-30.273,-32.715,0.000
1621213171.883,-16.602,-23.926,-30.273,-18.066,0.000
1621213171.887,-15.625,-14.648,-27.832,-25.879,0.000
1621213171.891,-43.457,-10.254,-38.574,-52.734,0.000
1621213171.895,-36.621,-17.578,-44.434,-54.199,0.000
1621213171.898,-7.812,-14.648,-32.715,-21.484,0.000
1621213171.902,-25.879,-14.160,-35.156,-25.391,0.000
1621213171.906,-32.715,-14.160,-36.621,-32.227,0.000
1621213171.910,-24.414,-10.254,-31.250,-23.926,0.000
1621213171.914,-47.852,-22.461,-39.551,-38.086,0.000
1621213171.918,-41.016,-27.344,-40.039,-28.809,0.000
1621213171.922,-16.602,-18.066,-35.156,-21.484,0.000
1621213171.926,-2.441,-9.277,-29.785,-30.762,0.000
1621213171.930,-8.789,-7.324,-29.297,-30.762,0.000
1621213171.934,-15.625,-16.113,-28.809,-26.855,0.000
1621213171.937,-8.789,-20.996,-34.668,-25.879,0.000
1621213171.941,-17.578,-23.926,-41.992,-25.391,0.000
1621213171.945,-21.484,-22.461,-37.109,-22.461,0.000
1621213171.949,7.812,-20.996,-31.250,-3.906,0.000
1621213171.953,38.574,-17.090,-33.691,6.348,0.000
1621213171.957,14.648,-13.672,-37.598,-8.789,0.000
1621213171.961,-4.395,-15.137,-38.086,-15.137,0.000
1621213171.965,-14.160,-15.137,-42.480,0.977,0.000
1621213171.969,-21.484,-17.090,-43.457,6.348,0.000
1621213171.973,-11.230,-19.043,-33.691,4.883,0.000
1621213171.977,-7.324,-19.531,-27.832,1.465,0.000
1621213171.980,9.277,-15.625,-33.691,10.254,0.000
1621213171.984,15.137,-11.719,-42.480,18.066,0.000
1621213171.988,11.719,-12.207,-44.922,7.324,0.000
1621213171.992,11.230,-24.414,-40.527,1.953,0.000
1621213171.996,-0.488,-32.227,-42.969,0.977,0.000
1621213172.000,-1.953,-33.691,-49.805,-1.465,0.000
1621213172.004,2.441,-32.227,-51.758,-0.977,0.000
1621213172.008,8.301,-22.461,-47.363,8.789,0.000
1621213172.012,7.812,-29.297,-53.711,3.906,0.000
1621213172.016,4.883,-33.203,-55.176,-0.488,0.000
1621213172.019,4.395,-27.344,-47.363,3.906,0.000
1621213172.023,2.930,-28.809,-51.758,-3.906,0.000
1621213172.027,9.277,-31.738,-54.199,-8.789,0.000
1621213172.031,5.859,-30.762,-49.805,-7.324,0.000
1621213172.035,-7.324,-30.762,-43.945,-10.254,0.000
1621213172.039,-5.371,-30.273,-44.434,-13.184,0.000
1621213172.043,-6.348,-32.227,-56.152,-20.996,0.000
1621213172.047,-19.043,-29.785,-57.129,-14.160,0.000
1621213172.051,-21.973,-24.414,-47.852,-2.441,0.000
1621213172.055,-18.555,-25.879,-42.480,-7.812,0.000
1621213172.059,-15.137,-29.785,-41.016,-19.043,0.000
1621213172.062,-11.719,-33.203,-40.527,-20.020,0.000
1621213172.066,-5.371,-30.762,-42.480,-11.719,0.000
1621213172.070,-8.301,-34.668,-43.457,-14.160,0.000
1621213172.074,-19.531,-37.598,-40.039,-16.602,0.000
1621213172.078,-11.230,-29.785,-33.203,-8.301,0.000
1621213172.082,-3.418,-33.691,-32.715,-3.418,0.000
1621213172.086,-4.883,-38.574,-31.250,-4.883,0.000
1621213172.090,0.488,-31.250,-17.578,3.418,0.000
1621213172.094,-7.324,-36.621,-22.949,-0.488,0.000
1621213172.098,-1.953,-42.969,-35.645,1.465,0.000
1621213172.102,23.438,-38.086,-28.809,19.531,0.000
1621213172.105,19.043,-34.668,-24.902,15.625,0.000
1621213172.109,12.695,-32.227,-25.879,6.348,0.000
1621213172.113,20.508,-33.203,-28.320,13.184,0.000
1621213172.117,15.625,-38.086,-35.156,14.160,0.000
1621213172.121,15.625,-32.715,-30.762,10.254,0.000
1621213172.125,27.832,-21.484,-20.508,18.066,0.000
1621213172.129,28.320,-26.367,-26.367,29.785,0.000
1621213172.133,32.715,-27.832,-29.297,44.434,0.000
1621213172.137,22.461,-33.203,-34.668,35.156,0.000
1621213172.141,8.301,-41.992,-35.645,20.020,0.000
1621213172.144,11.230,-33.691,-27.344,21.484,0.000
1621213172.148,8.789,-26.367,-32.715,17.578,0.000
1621213172.152,18.066,-21.973,-31.250,17.090,0.000
1621213172.156,21.973,-23.926,-32.715,0.000,0.000
1621213172.160,25.879,-27.344,-36.133,-11.719,0.000
1621213172.164,41.016,-20.508,-32.227,-3.906,0.000
1621213172.168,29.297,-17.090,-34.668,-11.719,0.000
1621213172.172,5.371,-23.438,-32.715,-16.113,0.000
1621213172.176,-11.230,-28.809,-25.391,-17.090,0.000
1621213172.180,1.465,-28.809,-30.762,-20.508,0.000
1621213172.184,41.992,-25.391,-38.086,-12.695,0.000
1621213172.187,30.762,-24.414,-41.504,-13.672,0.000
1621213172.191,12.207,-19.043,-39.551,-8.301,0.000
1621213172.195,7.812,-15.625,-28.809,3.906,0.000
1621213172.199,-10.254,-14.160,-27.832,5.859,0.000
1621213172.203,-16.602,-20.020,-33.203,1.953,0.000
1621213172.207,-11.230,-27.344,-37.598,-8.789,0.000
1621213172.211,1.953,-23.926,-31.250,-8.301,0.000
1621213172.215,7.324,-24.414,-27.344,-7.812,0.000
1621213172.219,-3.906,-29.785,-32.227,-18.555,0.000
1621213172.223,-1.465,-30.273,-30.762,-13.184,0.000
1621213172.226,10.254,-29.297,-32.715,-6.836,0.000
1621213172.230,32.715,-26.855,-35.645,-10.254,0.000
1621213172.234,45.410,-28.809,-38.086,-16.602,0.000
1621213172.238,69.824,-31.738,-42.969,-14.648,0.000
1621213172.242,84.961,-22.461,-43.945,-10.742,0.000
1621213172.246,-11.719,-26.855,-39.551,-7.812,0.000
1621213172.250,-68.848,-36.621,-30.273,-4.883,0.000
1621213172.254,-38.086,-30.762,-24.414,-7.324,0.000
1621213172.258,-43.945,-28.809,-22.949,-16.113,0.000
1621213172.262,-40.039,-31.250,-28.320,-19.531,0.000
1621213172.266,-27.344,-33.203,-19.043,5.371,0.000
1621213172.269,-14.160,-33.203,-12.695,20.508,0.000
1621213172.273,-7.812,-29.785,-18.066,7.812,0.000
1621213172.277,-14.160,-37.598,-21.484,-3.906,0.000
1621213172.281,-9.766,-38.086,-22.949,-0.977,0.000
1621213172.285,-10.742,-37.598,-25.879,0.977,0.000
1621213172.289,-6.348,-43.457,-25.879,1.953,0.000
1621213172.293,-0.977,-39.551,-17.090,10.254,0.000
1621213172.297,-6.836,-35.156,-15.137,-0.488,0.000
1621213172.301,-10.254,-32.227,-21.484,-6.348,0.000
1621213172.305,-24.902,-31.250,-29.297,-20.020,0.000
1621213172.309,-42.969,-36.621,-33.691,-38.086,0.000
1621213172.312,-38.086,-34.180,-28.320,-30.273,0.000
1621213172.316,-26.367,-25.391,-30.273,-27.344,0.000
1621213172.320,-25.879,-19.531,-37.109,-33.691,0.000
1621213172.324,-25.879,-21.973,-37.598,-30.273,0.000
1621213172.328,-30.762,-29.785,-41.992,-27.344,0.000
1621213172.332,-20.020,-22.461,-38.574,-14.648,0.000
1621213172.336,-14.648,-17.578,-33.203,-11.230,0.000
1621213172.340,-8.789,-22.461,-38.574,-14.648,0.000
1621213172.344,-11.230,-16.602,-41.016,-15.625,0.000
1621213172.348,-21.484,-12.695,-45.410,-23.926,0.000
1621213172.351,-23.926,-22.949,-51.758,-21.973,0.000
1621213172.355,-19.043,-24.414,-48.828,-17.090,0.000
1621213172.359,-11.230,-16.602,-44.922,-14.648,0.000
1621213172.363,-7.812,-19.043,-42.969,-18.555,0.000
1621213172.367,-5.371,-22.949,-36.621,-14.160,0.000
1621213172.371,-6.348,-20.020,-34.668,0.000,0.000
1621213172.375,-10.742,-18.066,-35.645,0.488,0.000
1621213172.379,-20.996,-23.438,-45.898,-9.766,0.000
1621213172.383,-18.555,-24.902,-45.410,-12.207,0.000
1621213172.387,-18.066,-25.391,-39.062,-14.160,0.000
1621213172.391,-20.996,-25.879,-30.762,-11.719,0.000
1621213172.394,-11.230,-20.996,-34.668,-19.531,0.000
1621213172.398,-4.883,-16.602,-42.480,-13.672,0.000
1621213172.402,-26.367,-25.391,-38.086,-4.395,0.000
1621213172.406,-37.598,-31.250,-37.109,-15.137,0.000
1621213172.410,-29.297,-25.391,-36.621,-13.672,0.000
1621213172.414,-30.273,-28.320,-35.156,-16.602,0.000
1621213172.418,-23.438,-33.203,-33.203,-20.996,0.000
1621213172.422,-15.625,-31.738,-36.621,-18.555,0.000
1621213172.426,-17.090,-27.344,-35.156,-20.996,0.000
1621213172.430,-36.133,-33.203,-30.273,-21.484,0.000
1621213172.434,-23.438,-28.320,-30.762,-10.742,0.000
1621213172.437,-13.672,-21.973,-29.785,-5.859,0.000
1621213172.441,-27.344,-31.738,-35.645,-18.555,0.000
1621213172.445,-14.648,-39.062,-45.410,-16.113,0.000
1621213172.449,-10.742,-38.574,-44.434,0.488,0.000
1621213172.453,-10.254,-34.668,-37.109,0.977,0.000
1621213172.457,-9.277,-33.203,-39.062,-6.836,0.000
1621213172.461,-2.441,-33.691,-40.527,-5.859,0.000
1621213172.465,9.277,-35.156,-33.691,5.859,0.000
1621213172.469,4.883,-35.156,-33.691,5.371,0.000
1621213172.473,-7.324,-34.180,-42.480,-2.441,0.000
1621213172.476,-3.418,-37.598,-40.527,2.930,0.000
1621213172.480,0.977,-35.156,-38.574,11.719,0.000
1621213172.484,-0.488,-32.227,-36.133,15.625,0.000
1621213172.488,-1.953,-30.762,-32.715,13.184,0.000
1621213172.492,-9.277,-31.250,-33.691,12.207,0.000
1621213172.496,-10.254,-37.598,-30.762,3.418,0.000
1621213172.500,-12.207,-37.109,-38.086,-4.395,0.000
1621213172.504,-8.789,-29.297,-39.551,6.348,0.000
1621213172.508,3.418,-26.855,-26.367,11.230,0.000
1621213172.512,3.906,-30.762,-26.367,2.441,0.000
1621213172.516,10.254,-32.715,-25.879,9.766,0.000
1621213172.519,12.207,-29.785,-27.344,20.020,0.000
1621213172.523,15.625,-32.715,-36.133,7.812,0.000
1621213172.527,28.320,-29.297,-31.250,7.812,0.000
1621213172.531,32.227,-27.832,-30.762,13.184,0.000
1621213172.535,33.691,-31.250,-34.180,14.160,0.000
1621213172.539,28.320,-37.109,-35.156,7.812,0.000
1621213172.543,35.156,-40.039,-29.785,1.465,0.000
1621213172.547,41.016,-28.809,-17.578,14.648,0.000
1621213172.551,32.227,-32.715,-26.367,14.160,0.000
1621213172.555,17.090,-41.992,-43.945,-8.789,0.000
1621213172.558,20.020,-31.738,-41.992,-14.648,0.000
1621213172.562,24.414,-27.832,-39.062,-7.812,0.000
1621213172.566,5.371,-33.691,-36.133,0.977,0.000
1621213172.570,0.488,-32.715,-26.367,19.531,0.000
1621213172.574,3.418,-23.438,-23.438,21.973,0.000
1621213172.578,-2.930,-25.391,-28.320,13.672,0.000
1621213172.582,-5.371,-33.203,-38.574,12.695,0.000
1621213172.586,-2.441,-30.273,-37.598,11.230,0.000
1621213172.590,-16.113,-31.250,-33.691,7.812,0.000
1621213172.594,-41.016,-31.250,-38.574,-7.812,0.000
1621213172.598,-41.504,-27.832,-35.156,-6.836,0.000
1621213172.601,-21.484,-29.297,-30.273,5.859,0.000
1621213172.605,-15.137,-27.344,-39.551,-5.859,0.000
1621213172.609,-11.719,-22.461,-41.992,-13.184,0.000
1621213172.613,-14.160,-24.414,-46.875,-19.043,0.000
1621213172.617,-21.484,-32.227,-56.641,-25.879,0.000
1621213172.621,3.906,-28.809,-48.828,-21.973,0.000
1621213172.625,6.836,-20.996,-44.434,-20.508,0.000
1621213172.629,-12.207,-24.414,-53.711,-32.227,0.000
1621213172.633,3.906,-26.855,-53.223,-28.809,0.000
1621213172.637,6.348,-24.902,-49.316,-20.996,0.000
1621213172.641,5.859,-22.461,-40.527,-20.020,0.000
1621213172.644,8.789,-20.996,-41.016,-17.578,0.000
1621213172.648,5.371,-18.066,-46.387,-12.207,0.000
1621213172.652,9.766,-16.113,-42.969,-14.648,0.000
1621213172.656,4.395,-22.949,-44.922,-26.367,0.000
1621213172.660,11.230,-24.902,-39.551,-17.090,0.000
1621213172.664,3.906,-29.297,-45.410,-13.672,0.000
1621213172.668,-3.418,-27.832,-47.852,-5.371,0.000
1621213172.672,3.418,-19.531,-37.598,0.977,0.000
1621213172.676,-12.695,-22.949,-40.527,-10.254,0.000
1621213172.680,-16.602,-29.297,-42.969,-8.789,0.000
1621213172.683,-8.301,-23.926,-39.551,-2.441,0.000
1621213172.687,-8.301,-21.973,-33.203,4.395,0.000
1621213172.691,-7.324,-27.344,-34.668,-2.930,0.000
1621213172.695,-21.973,-27.832,-37.109,-11.719,0.000
1621213172.699,-29.785,-32.715,-34.668,-12.207,0.000
1621213172.703,-18.066,-30.273,-36.133,-9.766,0.000
1621213172.707,-12.207,-26.367,-32.227,-6.348,0.000
1621213172.711,-21.973,-41.016,-30.273,-14.648,0.000
1621213172.715,-23.926,-46.875,-41.016,-22.461,0.000
1621213172.719,-9.766,-33.691,-37.598,-8.301,0.000
1621213172.723,-3.906,-31.738,-29.785,-5.371,0.000
1621213172.726,-1.953,-32.227,-37.598,-16.113,0.000
1621213172.730,-3.906,-33.691,-46.387,-10.742,0.000
1621213172.734,-7.812,-35.156,-41.992,-7.324,0.000
1621213172.738,0.977,-27.344,-32.715,-7.324,0.000
1621213172.742,0.000,-19.531,-37.598,-6.836,0.000
1621213172.746,-5.859,-21.484,-43.457,-12.207,0.000
1621213172.750,-7.812,-27.832,-47.852,-20.996,0.000
1621213172.754,-10.254,-29.785,-49.316,-21.973,0.000
1621213172.758,-2.930,-28.809,-48.340,-29.297,0.000
1621213172.762,10.254,-25.391,-46.875,-21.484,0.000
1621213172.766,4.395,-22.461,-37.598,-7.812,0.000
1621213172.769,0.000,-23.438,-32.715,-15.625,0.000
1621213172.773,7.812,-19.531,-29.297,-9.766,0.000
1621213172.777,-0.977,-24.414,-33.691,-4.883,0.000
1621213172.781,-13.184,-28.809,-38.574,-14.648,0.000
1621213172.785,-9.766,-26.367,-33.203,-25.391,0.000
1621213172.789,-1.953,-28.320,-28.809,-29.297,0.000
1621213172.793,-4.395,-18.555,-33.203,-32.227,0.000
1621213172.797,-14.160,-13.184,-29.297,-25.879,0.000
1621213172.801,-20.508,-18.066,-26.855,-23.926,0.000
1621213172.805,-34.668,-27.832,-30.273,-39.551,0.000
1621213172.808,-42.969,-26.367,-34.180,-46.387,0.000
1621213172.812,-26.367,-13.672,-27.832,-28.809,0.000
1621213172.816,-17.090,-11.719,-24.414,-19.043,0.000
1621213172.820,-17.090,-15.625,-30.273,-12.207,0.000
1621213172.824,-36.621,-23.926,-21.973,-15.137,0.000
1621213172.828,-51.270,-28.320,-25.391,-35.156,0.000
1621213172.832,-45.898,-24.902,-26.855,-32.227,0.000
1621213172.836,-43.457,-18.555,-20.020,-30.762,0.000
1621213172.840,-40.527,-14.648,-24.414,-40.039,0.000
1621213172.844,-34.668,-22.461,-22.949,-35.645,0.000
1621213172.848,-36.133,-29.297,-20.020,-35.645,0.000
1621213172.851,-33.691,-25.391,-21.484,-27.832,0.000
1621213172.855,-19.043,-20.020,-20.996,-9.277,0.000
1621213172.859,-27.832,-21.484,-18.555,-15.625,0.000
1621213172.863,-43.457,-29.785,-19.531,-20.508,0.000
1621213172.867,-17.578,-31.738,-16.602,-0.488,0.000
1621213172.871,-15.625,-24.902,-21.484,-13.184,0.000
1621213172.875,-35.156,-29.297,-38.574,-40.527,0.000
1621213172.879,-16.113,-29.785,-36.133,-20.020,0.000
1621213172.883,2.441,-23.438,-20.996,3.906,0.000
1621213172.887,-9.766,-25.391,-20.996,-5.371,0.000
1621213172.890,-20.020,-25.391,-22.949,-9.277,0.000
1621213172.894,-9.766,-27.832,-13.672,6.836,0.000
1621213172.898,1.465,-33.203,-14.160,17.578,0.000
1621213172.902,-6.836,-35.645,-22.949,6.836,0.000
1621213172.906,-18.066,-40.527,-33.203,-10.742,0.000
1621213172.910,-19.043,-43.457,-37.109,-9.766,0.000
1621213172.914,-7.324,-32.227,-25.879,12.207,0.000
1621213172.918,-0.977,-31.250,-18.066,8.789,0.000
1621213172.922,-5.371,-39.062,-20.508,-4.395,0.000
1621213172.926,-6.836,-40.527,-27.832,-6.836,0.000
1621213172.930,-6.836,-42.480,-34.668,-11.719,0.000
1621213172.933,-3.906,-40.527,-35.156,-9.766,0.000
1621213172.937,-4.395,-45.410,-41.504,-14.648,0.000
1621213172.941,-0.977,-48.828,-41.992,-19.531,0.000
1621213172.945,8.301,-38.086,-35.156,-5.371,0.000
1621213172.949,22.949,-28.320,-29.297,10.742,0.000
1621213172.953,16.602,-32.715,-37.598,-8.789,0.000
1621213172.957,-8.789,-42.480,-46.387,-15.137,0.000
1621213172.961,-11.230,-38.574,-42.480,2.930,0.000
1621213172.965,-5.371,-40.039,-44.434,2.930,0.000
1621213172.969,6.836,-40.527,-37.109,18.066,0.000
1621213172.972,-1.953,-38.086,-36.133,8.789,0.000
1621213172.976,-9.766,-40.527,-43.457,6.348,0.000
1621213172.980,4.395,-43.945,-46.387,15.625,0.000
1621213172.984,21.484,-40.527,-45.898,26.367,0.000
1621213172.988,34.180,-39.062,-36.133,33.203,0.000
1621213172.992,26.367,-41.504,-34.668,15.137,0.000
1621213172.996,28.809,-39.551,-37.598,23.438,0.000
1621213173.000,31.738,-37.598,-36.133,42.969,0.000
1621213173.004,22.949,-41.504,-38.574,42.480,0.000
1621213173.008,15.137,-41.992,-37.109,32.227,0.000
1621213173.012,17.090,-37.109,-35.645,26.855,0.000
1621213173.015,19.043,-41.504,-37.598,26.855,0.000
1621213173.019,16.602,-51.270,-35.645,26.367,0.000
1621213173.023,14.160,-50.781,-30.762,19.531,0.000
1621213173.027,13.672,-43.457,-35.156,13.672,0.000
1621213173.031,12.207,-40.527,-36.133,13.672,0.000
1621213173.035,6.348,-41.504,-38.574,7.812,0.000
1621213173.039,3.418,-47.363,-46.875,-7.324,0.000
1621213173.043,8.301,-42.480,-38.574,-7.812,0.000
1621213173.047,-0.488,-34.180,-30.762,-3.418,0.000
1621213173.051,-11.719,-44.434,-37.109,0.977,0.000
1621213173.055,-6.348,-43.945,-37.109,4.395,0.000
1621213173.058,-9.277,-35.156,-32.715,0.977,0.000
1621213173.062,-20.996,-32.227,-35.156,-1.953,0.000
1621213173.066,-13.672,-27.832,-26.855,5.859,0.000
1621213173.070,-4.883,-17.578,-26.367,-3.418,0.000
1621213173.074,-16.113,-21.484,-35.156,-24.902,0.000
1621213173.078,-21.484,-31.250,-38.086,-15.137,0.000
1621213173.082,-15.137,-30.273,-40.039,-3.906,0.000
1621213173.086,-10.742,-27.344,-35.156,-1.953,0.000
1621213173.090,-13.184,-20.996,-31.738,0.488,0.000
1621213173.094,-9.277,-22.949,-31.250,8.789,0.000
1621213173.097,4.395,-23.926,-27.832,22.461,0.000
1621213173.101,12.207,-16.113,-31.738,17.578,0.000
1621213173.105,15.625,-21.484,-37.598,6.836,0.000
1621213173.109,11.719,-27.832,-38.574,6.348,0.000
1621213173.113,12.695,-24.414,-38.086,19.043,0.000
1621213173.117,22.461,-20.508,-36.621,24.414,0.000
1621213173.121,18.066,-17.090,-33.203,15.625,0.000
1621213173.125,15.137,-15.137,-29.297,15.625,0.000
1621213173.129,20.020,-12.695,-29.785,19.043,0.000
1621213173.133,25.879,-11.719,-27.344,26.367,0.000
1621213173.137,11.719,-26.367,-39.062,11.230,0.000
1621213173.140,7.324,-28.809,-39.551,1.465,0.000
1621213173.144,17.090,-27.344,-31.738,11.719,0.000
1621213173.148,12.695,-31.738,-37.598,6.348,0.000
1621213173.152,18.555,-28.809,-36.133,2.441,0.000
1621213173.156,13.184,-27.344,-39.062,-6.348,0.000
1621213173.160,9.766,-31.250,-41.992,-10.742,0.000
1621213173.164,14.160,-30.273,-44.434,-14.160,0.000
1621213173.168,17.090,-26.855,-35.645,-1.953,0.000
1621213173.172,15.625,-29.785,-37.109,3.906,0.000
1621213173.176,4.883,-34.668,-43.945,-7.812,0.000
1621213173.180,1.953,-38.086,-40.039,4.395,0.000
1621213173.183,2.930,-33.691,-34.180,11.719,0.000
1621213173.187,1.465,-33.203,-35.645,5.371,0.000
1621213173.191,8.789,-31.738,-33.203,15.137,0.000
1621213173.195,12.207,-26.367,-27.832,19.043,0.000
1621213173.199,15.137,-24.902,-29.785,26.367,0.000
1621213173.203,27.344,-28.809,-29.785,30.762,0.000
1621213173.207,24.902,-31.738,-28.320,15.137,0.000
1621213173.211,18.066,-28.320,-34.668,6.836,0.000
1621213173.215,33.203,-18.555,-39.062,25.391,0.000
1621213173.219,35.645,-19.531,-28.320,38.574,0.000
1621213173.222,30.273,-25.391,-24.414,31.250,0.000
1621213173.226,21.973,-24.414,-30.762,18.066,0.000
1621213173.230,22.461,-32.715,-27.344,23.926,0.000
1621213173.234,24.902,-40.039,-30.273,14.648,0.000
1621213173.238,24.902,-24.902,-31.738,1.953,0.000
1621213173.242,24.414,-20.508,-28.809,7.324,0.000
1621213173.246,17.090,-25.391,-22.461,0.000,0.000
1621213173.250,16.113,-21.484,-21.484,3.906,0.000
1621213173.254,15.137,-20.020,-26.367,9.766,0.000
1621213173.258,5.371,-22.461,-27.832,0.488,0.000
1621213173.262,-11.719,-33.691,-35.156,-18.555,0.000
1621213173.265,-9.277,-29.297,-38.574,-20.508,0.000
1621213173.269,-5.371,-16.113,-38.086,-21.484,0.000
1621213173.273,-15.137,-25.879,-34.668,-41.504,0.000
1621213173.277,-23.438,-31.738,-29.785,-42.480,0.000
1621213173.281,-22.949,-25.879,-32.715,-33.691,0.000
1621213173.285,-14.648,-20.020,-29.297,-17.090,0.000
1621213173.289,-14.648,-15.625,-27.832,-13.184,0.000
1621213173.293,-34.180,-20.996,-33.691,-38.086,0.000
1621213173.297,-34.668,-20.020,-36.133,-37.598,0.000
1621213173.301,-22.461,-11.719,-28.809,-12.695,0.000
1621213173.304,-19.531,-14.648,-25.879,-7.324,0.000
1621213173.308,-23.926,-22.461,-31.250,-26.855,0.000
1621213173.312,-39.062,-33.691,-36.621,-31.738,0.000
1621213173.316,-30.273,-29.297,-36.133,-11.230,0.000
1621213173.320,-13.672,-15.137,-33.691,0.000,0.000
1621213173.324,-24.414,-21.973,-34.180,-4.395,0.000
1621213173.328,-20.508,-21.973,-30.762,-8.301,0.000
1621213173.332,-1.465,-18.066,-34.180,-11.719,0.000
1621213173.336,9.277,-20.996,-31.738,-0.977,0.000
1621213173.340,5.371,-20.020,-27.344,-5.859,0.000
1621213173.344,-9.766,-23.438,-39.062,-8.301,0.000
1621213173.347,-19.043,-36.133,-43.457,4.883,0.000
1621213173.351,-5.859,-32.715,-38.086,12.207,0.000
1621213173.355,-13.184,-28.809,-45.410,-1.465,0.000
1621213173.359,-22.949,-35.645,-47.852,-9.277,0.000
1621213173.363,-0.488,-31.738,-38.574,6.836,0.000
1621213173.367,5.859,-26.855,-36.621,7.812,0.000
1621213173.371,-0.977,-26.855,-39.062,-1.953,0.000
1621213173.375,-1.953,-27.344,-43.457,-14.160,0.000
1621213173.379,-2.441,-33.691,-45.898,-15.625,0.000
1621213173.383,-5.371,-30.762,-40.527,-6.348,0.000
1621213173.387,-9.766,-27.832,-32.715,-10.254,0.000
1621213173.390,-6.348,-34.180,-30.762,-17.578,0.000
1621213173.394,3.418,-27.344,-41.016,-17.578,0.000
1621213173.398,-1.465,-28.809,-43.457,-28.320,0.000
1621213173.402,2.930,-39.551,-44.434,-23.926,0.000
1621213173.406,0.488,-30.762,-49.316,-17.578,0.000
1621213173.410,-10.254,-22.461,-45.410,-26.855,0.000
1621213173.414,-4.395,-29.785,-38.086,-20.508,0.000
1621213173.418,-0.977,-33.691,-39.551,-3.418,0.000
1621213173.422,-4.883,-26.855,-40.039,-5.371,0.000
1621213173.426,-2.441,-25.391,-28.809,-8.789,0.000
1621213173.429,-3.418,-32.715,-35.645,-13.672,0.000
1621213173.433,0.488,-32.227,-39.062,-2.930,0.000
1621213173.437,19.531,-27.344,-24.902,15.625,0.000
1621213173.441,24.414,-25.391,-24.902,10.742,0.000
1621213173.445,23.926,-23.438,-31.738,13.672,0.000
1621213173.449,20.996,-29.297,-42.969,23.438,0.000
1621213173.453,9.277,-37.598,-46.875,2.930,0.000
1621213173.457,17.578,-38.086,-47.363,4.395,0.000
1621213173.461,32.715,-25.391,-41.016,32.227,0.000
1621213173.465,33.691,-20.996,-32.715,40.527,0.000
1621213173.469,31.738,-29.785,-39.062,24.414,0.000
1621213173.472,23.926,-33.691,-40.527,19.531,0.000
1621213173.476,19.043,-39.062,-35.156,13.184,0.000
1621213173.480,25.879,-31.250,-38.086,21.484,0.000
1621213173.484,20.508,-29.297,-41.504,21.973,0.000
1621213173.488,17.578,-30.273,-30.273,14.648,0.000
1621213173.492,8.301,-27.344,-27.344,17.090,0.000
1621213173.496,-11.230,-27.832,-38.574,3.906,0.000
1621213173.500,-18.066,-26.367,-40.527,-11.719,0.000
1621213173.504,-15.625,-21.484,-31.250,-15.625,0.000
1621213173.508,-36.133,-23.926,-40.039,-35.156,0.000
1621213173.512,-49.805,-24.414,-45.410,-41.504,0.000
1621213173.515,-44.434,-18.066,-31.738,-30.273,0.000
1621213173.519,-43.457,-18.066,-30.762,-39.062,0.000
1621213173.523,-55.664,-19.043,-32.715,-59.082,0.000
1621213173.527,-66.895,-12.695,-32.227,-57.129,0.000
1621213173.531,-55.664,-7.812,-28.320,-45.898,0.000
1621213173.535,-55.664,-15.137,-24.902,-43.945,0.000
1621213173.539,-55.176,-16.602,-26.367,-51.758,0.000
1621213173.543,-58.594,-15.137,-23.438,-58.105,0.000
1621213173.547,-69.824,-24.414,-18.555,-66.895,0.000
1621213173.551,-75.195,-23.438,-20.020,-71.289,0.000
1621213173.554,-59.570,-16.602,-16.602,-45.898,0.000
1621213173.558,-35.156,-10.742,-7.324,-33.691,0.000
1621213173.562,-58.594,-17.090,-11.719,-60.059,0.000
1621213173.566,-71.777,-23.926,-18.555,-60.059,0.000
1621213173.570,-49.805,-26.855,-16.113,-28.809,0.000
1621213173.574,-48.340,-20.996,-10.742,-27.832,0.000
1621213173.578,-55.176,-18.555,-2.930,-24.902,0.000
1621213173.582,-37.598,-24.414,-5.859,-3.906,0.000
1621213173.586,-35.156,-19.531,-10.254,-11.230,0.000
1621213173.590,-57.129,-21.484,-12.207,-37.598,0.000
1621213173.594,-46.875,-27.832,-16.113,-29.297,0.000
1621213173.597,-31.250,-28.320,-17.578,-13.672,0.000
1621213173.601,-37.109,-28.809,-9.766,-20.020,0.000
1621213173.605,-29.785,-25.879,-9.277,-21.484,0.000
1621213173.609,-13.184,-20.996,-18.066,-12.695,0.000
1621213173.613,-34.180,-25.879,-24.414,-21.973,0.000
1621213173.617,-58.105,-34.180,-35.645,-52.246,0.000
1621213173.621,-40.039,-29.785,-33.203,-46.387,0.000
1621213173.625,-25.879,-15.137,-25.879,-32.715,0.000
1621213173.629,-36.621,-9.277,-24.414,-38.574,0.000
1621213173.633,-40.039,-11.719,-22.949,-33.203,0.000
1621213173.636,-42.480,-18.555,-30.762,-42.480,0.000
1621213173.640,-46.387,-30.273,-40.039,-57.617,0.000
1621213173.644,-32.715,-23.438,-34.668,-38.574,0.000
1621213173.648,-32.715,-13.184,-31.738,-28.320,0.000
1621213173.652,-42.969,-19.531,-40.527,-36.133,0.000
1621213173.656,-32.715,-20.508,-42.969,-40.039,0.000
1621213173.660,-25.391,-25.879,-35.645,-29.785,0.000
1621213173.664,-29.785,-37.598,-34.180,-32.227,0.000
1621213173.668,-32.715,-38.574,-38.574,-46.875,0.000
1621213173.672,-28.809,-23.926,-33.691,-40.527,0.000
1621213173.676,-36.621,-20.996,-32.715,-37.109,0.000
1621213173.679,-32.715,-25.879,-33.691,-17.090,0.000
1621213173.683,-24.414,-23.926,-30.273,-19.043,0.000
1621213173.687,-35.156,-25.879,-31.250,-36.133,0.000
1621213173.691,-32.227,-30.273,-32.227,-23.438,0.000
1621213173.695,-0.977,-24.902,-27.344,-4.395,0.000
1621213173.699,-7.324,-19.531,-25.879,-12.695,0.000
1621213173.703,-20.508,-20.996,-26.367,-14.648,0.000
1621213173.707,-3.418,-27.832,-25.391,-11.230,0.000
1621213173.711,-3.418,-32.715,-32.227,-12.207,0.000
1621213173.715,-26.855,-29.297,-31.250,-20.508,0.000
1621213173.719,-32.227,-29.785,-26.367,-20.020,0.000
1621213173.722,-12.207,-29.785,-33.691,-8.301,0.000
1621213173.726,-12.695,-28.809,-41.016,-21.484,0.000
1621213173.730,-34.180,-33.691,-41.016,-36.133,0.000
1621213173.734,-29.785,-36.621,-37.109,-27.832,0.000
1621213173.738,-15.137,-25.391,-32.715,-13.672,0.000
1621213173.742,-17.090,-15.625,-27.832,-21.484,0.000
1621213173.746,-17.578,-23.438,-33.691,-25.391,0.000
1621213173.750,-10.742,-27.832,-41.504,-21.973,0.000
1621213173.754,-13.184,-27.344,-39.551,-30.762,0.000
1621213173.758,-12.207,-27.344,-38.086,-32.227,0.000
1621213173.761,-8.789,-28.809,-36.133,-24.902,0.000
1621213173.765,-10.254,-33.203,-34.668,-20.996,0.000
1621213173.769,-6.348,-27.832,-35.645,-18.066,0.000
1621213173.773,-4.395,-23.438,-30.273,-19.043,0.000
1621213173.777,-5.371,-26.367,-29.785,-17.578,0.000
1621213173.781,-11.230,-30.762,-44.434,-17.090,0.000
1621213173.785,-2.441,-27.344,-39.062,-2.930,0.000
1621213173.789,-6.836,-19.531,-30.273,-11.230,0.000
1621213173.793,-20.508,-25.879,-43.945,-30.762,0.000
1621213173.797,-14.160,-32.227,-38.086,-7.812,0.000
1621213173.801,-13.672,-32.715,-26.855,10.254,0.000
1621213173.804,-11.719,-33.203,-37.109,4.395,0.000
1621213173.808,-10.254,-34.180,-43.457,-7.812,0.000
1621213173.812,-6.348,-29.297,-33.203,-0.488,0.000
1621213173.816,-9.766,-28.320,-29.785,7.324,0.000
1621213173.820,-8.789,-28.809,-33.203,7.324,0.000
1621213173.824,-11.719,-34.180,-34.180,5.859,0.000
1621213173.828,-7.324,-36.621,-34.668,0.000,0.000
1621213173.832,6.348,-30.273,-36.133,-0.977,0.000
1621213173.836,9.277,-28.809,-42.969,1.465,0.000
1621213173.840,-1.953,-24.414,-41.992,-1.465,0.000
1621213173.844,-9.277,-23.926,-37.109,-6.836,0.000
1621213173.847,4.883,-28.809,-38.086,3.906,0.000
1621213173.851,22.461,-21.973,-40.039,11.719,0.000
1621213173.855,14.160,-14.648,-42.969,-0.977,0.000
1621213173.859,2.441,-16.113,-49.316,-14.160,0.000
1621213173.863,11.230,-12.695,-52.734,-19.043,0.000
1621213173.867,5.859,-15.625,-60.059,-24.902,0.000
1621213173.871,-7.812,-18.555,-56.152,-27.344,0.000
1621213173.875,-1.465,-15.137,-43.945,-20.020,0.000
1621213173.879,6.348,-13.672,-41.016,-12.207,0.000
1621213173.883,23.438,-8.301,-44.434,-1.465,0.000
1621213173.886,22.461,-8.789,-50.781,0.000,0.000
1621213173.890,0.000,-18.555,-52.246,-15.625,0.000
1621213173.894,-10.742,-22.461,-55.664,-15.625,0.000
1621213173.898,2.441,-20.996,-55.176,0.000,0.000
1621213173.902,15.137,-22.949,-49.316,11.719,0.000
1621213173.906,0.977,-16.602,-55.664,-6.348,0.000
1621213173.910,-4.883,-12.207,-57.617,-17.090,0.000
1621213173.914,2.441,-13.672,-45.410,1.953,0.000
1621213173.918,4.883,-22.949,-48.340,5.859,0.000
1621213173.922,16.602,-24.414,-51.758,6.348,0.000
1621213173.926,16.113,-20.996,-49.316,9.277,0.000
1621213173.929,10.742,-23.926,-50.293,7.812,0.000
1621213173.933,20.508,-22.949,-42.480,9.277,0.000
1621213173.937,23.438,-20.996,-35.156,20.508,0.000
1621213173.941,14.648,-23.926,-37.598,15.625,0.000
1621213173.945,8.301,-25.391,-41.504,6.836,0.000
1621213173.949,21.484,-22.949,-40.527,22.949,0.000
1621213173.953,28.809,-24.414,-44.434,20.020,0.000
1621213173.957,24.902,-29.297,-47.363,10.254,0.000
1621213173.961,17.578,-29.785,-43.457,13.184,0.000
1621213173.965,22.949,-23.926,-41.016,21.484,0.000
1621213173.969,24.902,-25.879,-42.480,17.090,0.000
1621213173.972,22.949,-25.879,-41.504,15.137,0.000
1621213173.976,27.832,-22.461,-41.504,5.371,0.000
1621213173.980,21.973,-22.461,-43.457,-2.441,0.000
1621213173.984,22.949,-21.484,-48.340,3.906,0.000
1621213173.988,8.789,-26.855,-54.199,-5.859,0.000
1621213173.992,-4.395,-29.785,-52.246,-4.395,0.000
1621213173.996,13.184,-29.297,-43.457,18.555,0.000
1621213174.000,13.672,-30.273,-44.434,24.414,0.000
1621213174.004,13.672,-25.879,-45.898,15.625,0.000
1621213174.008,15.625,-27.344,-43.945,10.254,0.000
1621213174.011,10.742,-30.762,-47.363,10.254,0.000
1621213174.015,17.090,-27.344,-45.410,15.625,0.000
1621213174.019,26.367,-32.715,-48.340,21.484,0.000
1621213174.023,37.109,-31.250,-42.480,33.203,0.000
1621213174.027,38.086,-23.926,-37.109,37.598,0.000
1621213174.031,39.062,-27.344,-43.457,29.297,0.000
1621213174.035,39.062,-30.273,-42.480,34.668,0.000
1621213174.039,31.250,-32.715,-40.039,31.738,0.000
1621213174.043,27.344,-35.156,-52.246,10.254,0.000
1621213174.047,26.855,-36.621,-60.059,3.906,0.000
1621213174.051,19.043,-37.109,-52.734,10.742,0.000
1621213174.054,25.391,-32.715,-43.457,20.508,0.000
1621213174.058,20.508,-31.738,-43.457,15.625,0.000
1621213174.062,10.742,-37.598,-41.992,17.090,0.000
1621213174.066,30.273,-32.715,-32.227,34.668,0.000
1621213174.070,24.414,-29.785,-40.039,20.020,0.000
1621213174.074,3.418,-37.109,-48.340,-7.812,0.000
1621213174.078,24.414,-31.738,-32.715,9.277,0.000
1621213174.082,41.504,-24.414,-27.344,22.949,0.000
1621213174.086,27.832,-25.391,-41.504,13.672,0.000
1621213174.090,18.066,-25.391,-40.527,12.207,0.000
1621213174.093,23.438,-22.949,-38.086,12.207,0.000
1621213174.097,18.555,-35.645,-41.016,11.230,0.000
1621213174.101,4.883,-45.898,-45.410,4.395,0.000
1621213174.105,2.930,-36.133,-45.410,0.977,0.000
1621213174.109,9.277,-28.320,-41.016,13.184,0.000
1621213174.113,6.348,-30.762,-37.109,11.719,0.000
1621213174.117,7.812,-38.086,-40.039,13.184,0.000
1621213174.121,11.230,-41.016,-50.293,7.324,0.000
1621213174.125,6.348,-36.133,-46.875,0.488,0.000
1621213174.129,14.648,-32.227,-33.691,8.301,0.000
1621213174.133,13.184,-34.180,-33.691,10.254,0.000
1621213174.136,-2.930,-40.039,-41.504,6.836,0.000
1621213174.140,-9.277,-45.410,-44.434,2.930,0.000
1621213174.144,-8.301,-47.363,-43.945,7.812,0.000
1621213174.148,0.488,-36.621,-45.898,8.301,0.000
1621213174.152,4.395,-29.297,-41.992,11.719,0.000
1621213174.156,1.465,-21.973,-25.391,15.625,0.000
1621213174.160,-16.113,-17.578,-27.832,-1.465,0.000
1621213174.164,-22.461,-20.020,-37.109,-14.160,0.000
1621213174.168,-21.484,-20.996,-34.668,-11.719,0.000
1621213174.172,-39.062,-29.785,-43.945,-30.273,0.000
1621213174.176,-30.762,-23.926,-37.109,-39.062,0.000
1621213174.179,-21.484,-15.137,-27.832,-44.434,0.000
1621213174.183,-45.410,-20.508,-35.645,-60.547,0.000
1621213174.187,-58.105,-24.414,-41.504,-60.059,0.000
1621213174.191,-54.688,-24.902,-43.457,-70.312,0.000
1621213174.195,-58.594,-25.391,-40.039,-79.590,0.000
1621213174.199,-59.082,-16.602,-35.156,-62.500,0.000
1621213174.203,-55.664,-16.602,-39.062,-58.594,0.000
1621213174.207,-63.477,-29.785,-39.551,-63.965,0.000
1621213174.211,-63.965,-29.297,-21.973,-51.270,0.000
1621213174.215,-68.359,-20.508,-29.785,-54.199,0.000
1621213174.218,-68.848,-11.719,-41.016,-61.523,0.000
1621213174.222,-66.406,-14.160,-34.180,-59.082,0.000
1621213174.226,-67.871,-16.113,-33.691,-56.641,0.000
1621213174.230,-54.688,-12.207,-34.668,-36.621,0.000
1621213174.234,-47.363,-8.789,-32.227,-21.484,0.000
1621213174.238,-56.641,-17.578,-38.574,-32.227,0.000
1621213174.242,-52.734,-12.695,-47.363,-40.527,0.000
1621213174.246,-30.762,2.441,-48.340,-22.461,0.000
1621213174.250,-23.926,-1.465,-36.621,-9.766,0.000
1621213174.254,-29.785,-8.301,-35.156,-27.344,0.000
1621213174.258,-26.367,-0.488,-49.805,-35.156,0.000
1621213174.261,-24.414,1.465,-52.246,-26.367,0.000
1621213174.265,-23.438,-14.648,-39.062,-11.719,0.000
1621213174.269,-13.672,-18.555,-39.551,-15.137,0.000
1621213174.273,-16.602,-19.043,-43.945,-14.160,0.000
1621213174.277,-13.672,-22.461,-37.598,-4.395,0.000
1621213174.281,-11.719,-27.344,-41.992,-10.742,0.000
1621213174.285,-18.066,-28.809,-46.875,-20.508,0.000
1621213174.289,-14.160,-29.297,-43.457,-27.344,0.000
1621213174.293,-9.766,-32.227,-44.922,-19.531,0.000
1621213174.297,-6.348,-30.762,-47.852,-11.719,0.000
1621213174.301,0.977,-32.227,-51.270,-12.207,0.000
1621213174.304,8.301,-33.691,-48.828,-2.930,0.000
1621213174.308,14.160,-34.180,-41.504,10.254,0.000
1621213174.312,2.441,-37.109,-50.781,14.648,0.000
1621213174.316,11.719,-35.156,-49.805,25.391,0.000
1621213174.320,36.133,-30.762,-43.457,32.715,0.000
1621213174.324,30.762,-33.203,-43.945,23.438,0.000
1621213174.328,28.320,-35.645,-43.457,25.391,0.000
1621213174.332,28.320,-38.086,-51.758,13.672,0.000
1621213174.336,22.949,-39.551,-42.969,12.207,0.000
1621213174.340,23.438,-36.621,-27.832,21.973,0.000
1621213174.343,35.645,-31.738,-29.785,28.809,0.000
1621213174.347,38.574,-31.250,-36.621,35.156,0.000
1621213174.351,28.809,-33.691,-42.969,33.691,0.000
1621213174.355,27.344,-36.133,-44.434,28.809,0.000
1621213174.359,21.484,-38.086,-47.363,24.414,0.000
1621213174.363,21.973,-41.992,-47.363,30.273,0.000
1621213174.367,16.602,-44.434,-50.781,26.855,0.000
1621213174.371,12.207,-42.480,-52.734,25.879,0.000
1621213174.375,12.695,-40.039,-42.969,23.438,0.000
1621213174.379,9.277,-39.062,-34.180,27.832,0.000
1621213174.383,3.906,-41.504,-35.645,26.855,0.000
1621213174.386,2.441,-39.551,-39.062,7.812,0.000
1621213174.390,4.883,-38.574,-37.109,1.465,0.000
1621213174.394,1.953,-40.527,-33.203,-1.465,0.000
1621213174.398,4.395,-33.691,-30.762,7.324,0.000
1621213174.402,-1.465,-37.598,-35.156,0.488,0.000
1621213174.406,6.836,-34.668,-39.551,-8.301,0.000
1621213174.410,15.137,-27.344,-39.062,-4.883,0.000
1621213174.414,-11.719,-38.574,-37.109,-12.207,0.000
1621213174.418,-22.461,-42.969,-34.668,-15.137,0.000
1621213174.422,-14.648,-39.062,-32.715,-14.648,0.000
1621213174.425,-19.531,-41.016,-38.086,-21.484,0.000
1621213174.429,-0.488,-30.273,-30.762,-6.836,0.000
1621213174.433,20.996,-16.113,-24.902,0.488,0.000
1621213174.437,1.465,-22.949,-26.855,-9.766,0.000
1621213174.441,-3.906,-23.926,-20.020,-2.441,0.000
1621213174.445,11.719,-17.090,-22.949,5.371,0.000
1621213174.449,8.301,-27.344,-34.180,-7.324,0.000
1621213174.453,0.488,-30.273,-36.133,-18.066,0.000
1621213174.457,-1.465,-19.531,-31.250,-24.414,0.000
1621213174.461,-7.812,-18.066,-31.250,-27.344,0.000
1621213174.465,-7.812,-21.973,-33.203,-25.879,0.000
1621213174.468,1.465,-19.043,-34.668,-15.625,0.000
1621213174.472,8.301,-15.625,-33.203,-3.906,0.000
1621213174.476,0.977,-21.973,-22.949,-11.230,0.000
1621213174.480,-11.719,-25.391,-23.438,-18.555,0.000
1621213174.484,-11.719,-11.230,-32.227,-13.672,0.000
1621213174.488,-20.508,-12.695,-27.832,-22.461,0.000
1621213174.492,-35.645,-23.926,-22.461,-30.273,0.000
1621213174.496,-29.297,-20.996,-24.902,-25.391,0.000
1621213174.500,-23.926,-20.020,-27.832,-22.461,0.000
1621213174.504,-26.367,-20.996,-27.832,-21.973,0.000
1621213174.508,-20.996,-16.602,-27.344,-24.902,0.000
1621213174.511,-31.250,-21.484,-37.109,-31.738,0.000
1621213174.515,-30.273,-28.320,-29.297,-19.531,0.000
1621213174.519,-8.301,-17.578,-28.320,-8.301,0.000
1621213174.523,-9.766,-12.207,-34.668,-14.648,0.000
1621213174.527,-27.344,-24.902,-26.367,-22.949,0.000
1621213174.531,-31.738,-24.902,-31.738,-17.090,0.000
1621213174.535,-14.160,-14.648,-41.992,-6.348,0.000
1621213174.539,-14.648,-22.949,-43.945,-11.230,0.000
1621213174.543,-10.254,-31.738,-40.039,-12.207,0.000
1621213174.547,-0.977,-27.344,-46.875,-9.277,0.000
1621213174.550,7.324,-23.438,-49.316,2.930,0.000
1621213174.554,17.578,-18.555,-43.945,9.766,0.000
1621213174.558,18.066,-18.555,-44.434,6.348,0.000
1621213174.562,26.367,-23.438,-37.109,6.348,0.000
1621213174.566,19.043,-29.297,-32.227,4.883,0.000
1621213174.570,10.742,-29.297,-38.574,5.371,0.000
1621213174.574,18.555,-31.738,-51.270,0.000,0.000
1621213174.578,12.695,-36.621,-55.664,-1.465,0.000
1621213174.582,3.906,-28.320,-48.340,17.090,0.000
1621213174.586,10.254,-26.367,-40.039,24.414,0.000
1621213174.590,4.883,-31.738,-41.992,10.742,0.000
1621213174.593,-0.488,-35.645,-44.434,-2.930,0.000
1621213174.597,6.348,-37.109,-41.016,9.277,0.000
1621213174.601,-0.488,-32.227,-44.922,11.230,0.000
1621213174.605,-7.812,-29.785,-46.387,1.465,0.000
1621213174.609,1.953,-24.414,-34.180,15.137,0.000
1621213174.613,3.418,-19.043,-34.668,8.301,0.000
1621213174.617,-12.207,-28.320,-35.645,-3.906,0.000
1621213174.621,-13.672,-30.273,-32.715,1.953,0.000
1621213174.625,-14.648,-25.879,-36.621,-10.742,0.000
1621213174.629,-17.578,-23.438,-41.016,-22.949,0.000
1621213174.633,-18.066,-24.414,-49.316,-18.555,0.000
1621213174.636,-13.672,-22.949,-44.922,-7.812,0.000
1621213174.640,-5.371,-17.090,-36.621,-7.812,0.000
1621213174.644,-3.418,-21.973,-35.645,-6.348,0.000
1621213174.648,-5.371,-26.367,-39.551,4.395,0.000
1621213174.652,-3.906,-22.949,-43.945,14.648,0.000
1621213174.656,-7.812,-28.320,-41.016,3.906,0.000
1621213174.660,-13.672,-32.715,-42.969,-8.789,0.000
1621213174.664,-18.066,-31.250,-47.852,-0.488,0.000
1621213174.668,-8.789,-30.762,-52.246,-3.418,0.000
1621213174.672,0.000,-24.902,-51.270,-8.301,0.000
1621213174.675,-11.230,-24.902,-47.363,-19.531,0.000
1621213174.679,-15.625,-36.133,-42.969,-16.602,0.000
1621213174.683,-5.859,-33.691,-35.156,-6.348,0.000
1621213174.687,-12.207,-31.250,-37.598,-18.066,0.000
1621213174.691,-21.484,-29.785,-43.457,-21.973,0.000
1621213174.695,-14.648,-24.414,-48.340,-19.531,0.000
1621213174.699,-10.742,-30.762,-49.805,-17.090,0.000
1621213174.703,-14.160,-29.785,-43.945,-7.324,0.000
1621213174.707,-0.977,-21.973,-39.551,-2.441,0.000
1621213174.711,13.184,-21.484,-37.109,0.488,0.000
1621213174.715,4.883,-22.949,-41.992,0.977,0.000
1621213174.718,-8.789,-33.203,-40.039,-2.930,0.000
1621213174.722,-4.883,-29.297,-28.809,1.465,0.000
1621213174.726,0.000,-20.020,-29.785,8.301,0.000
1621213174.730,-8.301,-28.320,-33.691,17.578,0.000
1621213174.734,-24.414,-38.574,-35.645,22.461,0.000
1621213174.738,-16.113,-33.691,-32.715,17.090,0.000
1621213174.742,-11.719,-32.227,-29.297,6.836,0.000
1621213174.746,-21.973,-40.039,-33.203,0.488,0.000
1621213174.750,-11.719,-32.715,-36.621,1.953,0.000
1621213174.754,-4.883,-25.391,-29.785,8.789,0.000
1621213174.757,-12.207,-38.574,-29.785,-1.465,0.000
1621213174.761,-10.254,-40.527,-31.738,-8.789,0.000
1621213174.765,-18.066,-35.645,-33.203,-3.906,0.000
1621213174.769,-14.648,-42.480,-37.598,-1.953,0.000
1621213174.773,-8.301,-44.434,-39.062,0.000,0.000
1621213174.777,-5.371,-38.574,-30.762,0.977,0.000
1621213174.781,4.395,-34.180,-26.367,1.953,0.000
1621213174.785,8.789,-33.203,-31.250,8.301,0.000
1621213174.789,7.324,-32.227,-27.344,14.160,0.000
1621213174.793,-5.859,-36.621,-29.297,0.977,0.000
1621213174.797,-10.742,-44.922,-39.551,-5.371,0.000
1621213174.800,-4.395,-51.758,-50.293,-9.277,0.000
1621213174.804,3.906,-43.945,-48.340,-6.836,0.000
1621213174.808,2.930,-34.180,-40.039,3.418,0.000
1621213174.812,-2.930,-41.504,-34.668,1.465,0.000
1621213174.816,0.000,-44.922,-33.691,-4.395,0.000
1621213174.820,6.836,-41.016,-39.062,-14.160,0.000
1621213174.824,11.719,-40.527,-40.039,-13.672,0.000
1621213174.828,1.465,-44.922,-41.504,0.000,0.000
1621213174.832,2.441,-39.062,-44.922,7.812,0.000
1621213174.836,12.207,-29.785,-34.668,18.555,0.000
1621213174.840,19.043,-28.320,-23.926,21.973,0.000
1621213174.843,14.648,-29.785,-29.785,12.207,0.000
1621213174.847,12.207,-38.574,-28.809,26.855,0.000
1621213174.851,10.742,-42.969,-32.715,32.715,0.000
1621213174.855,19.531,-36.621,-41.504,18.555,0.000
1621213174.859,35.156,-28.809,-23.926,24.414,0.000
1621213174.863,35.156,-29.297,-16.113,34.668,0.000
1621213174.867,46.387,-24.902,-29.785,32.715,0.000
1621213174.871,43.457,-24.902,-28.809,33.691,0.000
1621213174.875,24.902,-34.668,-26.855,26.855,0.000
1621213174.879,26.855,-30.762,-30.762,14.648,0.000
1621213174.882,25.879,-35.645,-33.203,23.926,0.000
1621213174.886,20.508,-35.645,-35.156,11.230,0.000
1621213174.890,38.086,-22.461,-28.320,7.812,0.000
1621213174.894,27.344,-26.855,-33.691,9.766,0.000
1621213174.898,12.207,-35.645,-40.527,-0.977,0.000
1621213174.902,20.508,-33.203,-30.762,21.973,0.000
1621213174.906,12.207,-31.738,-28.809,18.555,0.000
1621213174.910,5.371,-33.203,-31.250,-8.789,0.000
1621213174.914,-3.906,-35.156,-38.574,-18.066,0.000
1621213174.918,6.836,-35.156,-36.621,-0.488,0.000
1621213174.922,25.391,-20.508,-25.391,22.461,0.000
1621213174.925,24.414,-24.414,-28.320,9.766,0.000
1621213174.929,3.418,-36.133,-23.926,-4.883,0.000
1621213174.933,-16.113,-36.621,-34.668,-7.324,0.000
1621213174.937,0.488,-42.969,-52.734,8.301,0.000
1621213174.941,6.348,-37.109,-31.738,11.719,0.000
1621213174.945,-1.953,-30.273,-20.508,5.859,0.000
1621213174.949,1.465,-31.250,-30.273,20.996,0.000
1621213174.953,-5.859,-34.668,-28.809,16.113,0.000
1621213174.957,-6.836,-31.738,-27.344,2.930,0.000
1621213174.961,10.742,-20.996,-26.855,11.719,0.000
1621213174.965,19.531,-19.531,-28.320,23.926,0.000
1621213174.968,20.508,-14.648,-26.367,26.367,0.000
1621213174.972,12.207,-19.043,-31.250,16.113,0.000
1621213174.976,10.254,-25.879,-40.527,-3.418,0.000
1621213174.980,18.066,-19.531,-32.227,13.184,0.000
1621213174.984,18.555,-12.207,-24.902,20.508,0.000
1621213174.988,2.441,-23.438,-32.715,-7.324,0.000
1621213174.992,-3.418,-31.738,-38.574,-19.531,0.000
1621213174.996,3.418,-24.414,-34.180,-18.066,0.000
