timestamps,TP9,AF7,AF8,TP10,Right AUX
1621213630.311,-25.879,-21.973,-30.762,-26.367,0.000
1621213630.315,-26.855,-30.273,-29.785,-21.973,0.000
1621213630.319,-26.367,-36.621,-33.691,-20.020,0.000
1621213630.323,-31.250,-43.945,-38.574,-34.668,0.000
1621213630.327,-35.645,-36.621,-35.645,-47.852,0.000
1621213630.331,-27.344,-28.809,-32.715,-43.457,0.000
1621213630.334,-24.902,-35.156,-37.598,-27.344,0.000
1621213630.338,-34.668,-38.086,-37.598,-31.738,0.000
1621213630.342,-21.484,-36.621,-35.156,-45.410,0.000
1621213630.346,-12.207,-26.367,-36.133,-26.855,0.000
1621213630.350,-22.461,-21.973,-35.156,-20.020,0.000
1621213630.354,-26.367,-30.273,-31.738,-30.273,0.000
1621213630.358,-21.973,-28.809,-30.273,-29.297,0.000
1621213630.362,-19.531,-28.320,-37.109,-30.762,0.000
1621213630.366,-20.996,-31.738,-42.480,-32.715,0.000
1621213630.370,-24.414,-34.668,-41.016,-32.227,0.000
1621213630.373,-26.855,-34.180,-40.527,-31.738,0.000
1621213630.377,-24.902,-31.250,-44.434,-32.715,0.000
1621213630.381,-24.902,-32.227,-44.434,-33.203,0.000
1621213630.385,-30.273,-28.320,-44.922,-23.926,0.000
1621213630.389,-25.879,-38.086,-41.504,-28.320,0.000
1621213630.393,-35.156,-45.410,-45.410,-35.156,0.000
1621213630.397,-34.668,-28.320,-46.875,-29.297,0.000
1621213630.401,-30.273,-33.691,-39.062,-23.438,0.000
1621213630.405,-35.645,-33.691,-41.016,-21.484,0.000
1621213630.409,-34.180,-32.715,-35.645,-22.949,0.000
1621213630.413,-35.645,-40.039,-32.227,-14.648,0.000
1621213630.417,-41.016,-37.598,-38.574,-18.066,0.000
1621213630.420,-37.109,-27.344,-40.039,-29.785,0.000
1621213630.424,-31.738,-30.762,-37.109,-31.250,0.000
1621213630.428,-42.480,-38.574,-37.109,-27.832,0.000
1621213630.432,-40.039,-42.969,-36.133,-28.809,0.000
1621213630.436,-27.344,-52.734,-38.086,-23.926,0.000
1621213630.440,-34.668,-45.410,-44.434,-22.461,0.000
1621213630.444,-44.434,-39.062,-45.410,-33.203,0.000
1621213630.448,-39.062,-46.875,-44.922,-41.992,0.000
1621213630.452,-31.738,-43.945,-38.574,-31.738,0.000
1621213630.456,-33.203,-34.180,-35.156,-28.809,0.000
1621213630.460,-30.273,-41.016,-45.898,-37.109,0.000
1621213630.463,-27.344,-48.340,-47.363,-37.598,0.000
1621213630.467,-35.156,-36.621,-37.598,-29.785,0.000
1621213630.471,-35.645,-38.574,-33.691,-22.461,0.000
1621213630.475,-35.645,-41.016,-31.738,-25.879,0.000
1621213630.479,-32.715,-25.391,-27.344,-25.391,0.000
1621213630.483,-30.273,-22.949,-27.344,-19.043,0.000
1621213630.487,-27.344,-29.297,-30.273,-13.672,0.000
1621213630.491,-27.832,-33.691,-33.203,-24.902,0.000
1621213630.495,-35.645,-31.738,-34.180,-29.297,0.000
1621213630.499,-34.668,-27.344,-31.738,-28.809,0.000
1621213630.503,-20.996,-23.438,-33.691,-33.691,0.000
1621213630.506,-13.184,-29.297,-33.203,-32.715,0.000
1621213630.510,-15.625,-24.414,-26.367,-34.668,0.000
1621213630.514,-20.508,-27.832,-31.738,-44.434,0.000
1621213630.518,-14.648,-33.691,-35.645,-34.180,0.000
1621213630.522,-5.859,-22.949,-33.691,-17.578,0.000
1621213630.526,-16.113,-30.273,-34.180,-20.996,0.000
1621213630.530,-21.484,-28.320,-41.016,-25.879,0.000
1621213630.534,-18.555,-21.484,-42.480,-28.320,0.000
1621213630.538,-19.531,-33.203,-37.109,-27.344,0.000
1621213630.541,-24.414,-35.156,-41.992,-32.227,0.000
1621213630.545,-33.203,-30.273,-41.016,-39.062,0.000
1621213630.549,-34.180,-28.809,-31.250,-24.902,0.000
1621213630.553,-31.738,-26.855,-29.297,-21.484,0.000
1621213630.557,-24.902,-37.598,-35.645,-27.832,0.000
1621213630.561,-13.672,-29.785,-33.203,-15.625,0.000
1621213630.565,-23.926,-26.855,-31.738,-5.859,0.000
1621213630.569,-31.250,-31.738,-34.180,-14.160,0.000
1621213630.573,-20.996,-37.598,-33.203,-13.672,0.000
1621213630.577,-22.461,-35.645,-39.062,-11.230,0.000
1621213630.581,-27.832,-30.273,-40.527,-20.020,0.000
1621213630.584,-18.555,-34.668,-38.086,-17.090,0.000
1621213630.588,-15.137,-30.762,-36.133,-14.648,0.000
1621213630.592,-18.555,-29.297,-37.109,-24.414,0.000
1621213630.596,-4.395,-24.414,-54.199,-13.672,0.000
1621213630.600,4.395,-33.691,-38.574,13.184,0.000
1621213630.604,-21.973,-48.828,-9.766,1.465,0.000
1621213630.608,-49.316,-41.504,-22.461,-36.133,0.000
1621213630.612,-51.758,-31.738,-30.273,-39.062,0.000
1621213630.616,-48.828,-28.809,-20.508,-22.461,0.000
1621213630.620,-62.988,-38.574,-25.391,-36.133,0.000
1621213630.623,-66.406,-49.805,-30.273,-43.457,0.000
1621213630.627,-61.035,-43.457,-25.879,-50.781,0.000
1621213630.631,-64.941,-43.457,-27.344,-59.570,0.000
1621213630.635,-45.898,-46.387,-33.691,-54.688,0.000
1621213630.639,-35.156,-39.551,-34.180,-48.340,0.000
1621213630.643,-42.969,-41.016,-22.461,-32.227,0.000
1621213630.647,-30.273,-44.922,-14.648,-24.414,0.000
1621213630.651,-25.391,-50.293,-20.508,-26.367,0.000
1621213630.655,-32.227,-46.875,-26.367,-21.973,0.000
1621213630.659,-38.574,-38.574,-23.438,-27.832,0.000
1621213630.663,-40.039,-37.598,-20.020,-28.320,0.000
1621213630.666,-45.410,-35.156,-25.391,-15.137,0.000
1621213630.670,-31.738,-26.855,-33.691,-18.066,0.000
1621213630.674,-31.250,-25.879,-39.551,-20.020,0.000
1621213630.678,-37.109,-27.344,-37.109,-22.949,0.000
1621213630.682,-33.203,-29.297,-35.645,-30.273,0.000
1621213630.686,-35.645,-37.598,-33.203,-29.297,0.000
1621213630.690,-29.785,-46.387,-26.367,-22.949,0.000
1621213630.694,-25.391,-47.852,-30.762,-25.391,0.000
1621213630.698,-32.227,-46.387,-35.156,-20.020,0.000
1621213630.702,-35.645,-35.645,-29.785,-19.043,0.000
1621213630.705,-31.250,-31.250,-27.344,-32.227,0.000
1621213630.709,-28.809,-37.109,-23.926,-27.344,0.000
1621213630.713,-25.391,-40.039,-21.484,-21.973,0.000
1621213630.717,-36.621,-41.016,-24.414,-20.508,0.000
1621213630.721,-36.621,-43.457,-19.531,-16.113,0.000
1621213630.725,-31.738,-48.340,-20.020,-13.672,0.000
1621213630.729,-32.227,-43.945,-25.391,-20.020,0.000
1621213630.733,-34.180,-39.551,-28.320,-17.090,0.000
1621213630.737,-34.180,-42.969,-26.855,-15.625,0.000
1621213630.741,-29.785,-44.922,-22.461,-20.020,0.000
1621213630.745,-38.574,-31.250,-28.809,-22.949,0.000
1621213630.748,-37.598,-27.344,-31.250,-31.738,0.000
1621213630.752,-30.762,-34.180,-20.996,-27.832,0.000
1621213630.756,-38.086,-34.180,-16.602,-23.438,0.000
1621213630.760,-39.062,-28.320,-19.531,-32.715,0.000
1621213630.764,-37.598,-19.531,-21.484,-39.551,0.000
1621213630.768,-49.316,-28.809,-29.785,-46.387,0.000
1621213630.772,-43.457,-33.691,-33.203,-40.039,0.000
1621213630.776,-38.574,-30.273,-24.902,-37.109,0.000
1621213630.780,-41.504,-20.020,-32.227,-36.621,0.000
1621213630.784,-37.598,-1.465,-38.086,-29.785,0.000
1621213630.788,-41.504,-12.695,-40.527,-39.062,0.000
1621213630.791,-52.246,-21.973,-40.527,-46.387,0.000
1621213630.795,-58.594,-8.789,-32.227,-56.152,0.000
1621213630.799,-64.941,-7.812,-41.016,-69.824,0.000
1621213630.803,-75.195,-3.906,-40.527,-79.590,0.000
1621213630.807,-78.613,4.395,-41.992,-90.332,0.000
1621213630.811,-84.473,10.254,-40.527,-93.262,0.000
1621213630.815,-114.258,22.949,-40.039,-114.746,0.000
1621213630.819,-145.996,30.273,-54.199,-148.926,0.000
1621213630.823,-136.230,48.340,-52.734,-145.508,0.000
1621213630.827,-153.809,62.988,-59.082,-166.992,0.000
1621213630.831,-208.984,52.246,-63.477,-213.867,0.000
1621213630.834,-238.770,41.016,-61.035,-237.793,0.000
1621213630.838,-269.531,50.781,-59.082,-264.160,0.000
1621213630.842,-288.574,57.617,-56.152,-289.062,0.000
1621213630.846,-298.340,56.152,-56.641,-304.688,0.000
1621213630.850,-316.895,58.105,-54.199,-307.617,0.000
1621213630.854,-320.801,50.293,-64.453,-304.688,0.000
1621213630.858,-311.523,41.016,-61.035,-296.875,0.000
1621213630.862,-305.664,36.621,-45.898,-291.992,0.000
1621213630.866,-298.340,39.551,-52.734,-294.922,0.000
1621213630.869,-272.461,29.297,-55.664,-274.902,0.000
1621213630.874,-253.418,26.855,-48.340,-243.652,0.000
1621213630.877,-234.375,40.527,-44.922,-230.957,0.000
1621213630.881,-206.055,31.738,-46.387,-213.867,0.000
1621213630.885,-190.918,17.578,-44.434,-200.684,0.000
1621213630.889,-166.992,3.418,-49.316,-173.340,0.000
1621213630.893,-134.766,2.930,-51.758,-131.348,0.000
1621213630.897,-135.742,-0.488,-52.246,-120.605,0.000
1621213630.901,-114.746,-20.996,-55.176,-95.215,0.000
1621213630.905,-73.730,-25.391,-46.875,-55.664,0.000
1621213630.909,-57.617,-30.762,-43.945,-45.410,0.000
1621213630.912,-41.992,-36.133,-46.875,-27.832,0.000
1621213630.916,-30.273,-37.598,-43.457,1.465,0.000
1621213630.920,-22.461,-56.641,-40.039,3.418,0.000
1621213630.924,3.418,-65.918,-41.504,16.113,0.000
1621213630.928,14.160,-66.895,-36.621,32.227,0.000
1621213630.932,15.625,-72.754,-28.320,33.203,0.000
1621213630.936,26.367,-73.242,-27.344,45.410,0.000
1621213630.940,28.320,-66.895,-25.391,50.293,0.000
1621213630.944,31.738,-72.754,-21.484,53.223,0.000
1621213630.948,47.363,-82.520,-16.602,62.988,0.000
1621213630.952,46.875,-89.844,-13.184,66.406,0.000
1621213630.955,52.246,-77.637,-18.555,69.824,0.000
1621213630.959,64.453,-73.242,-16.113,83.496,0.000
1621213630.963,75.195,-81.055,-10.254,87.402,0.000
1621213630.967,73.730,-83.496,-20.020,81.055,0.000
1621213630.971,75.684,-77.148,-21.484,83.008,0.000
1621213630.975,82.031,-79.590,-16.602,85.938,0.000
1621213630.979,86.914,-72.266,-11.230,91.797,0.000
1621213630.983,86.426,-59.082,-8.789,88.379,0.000
1621213630.987,82.520,-63.965,-16.113,84.473,0.000
1621213630.991,84.961,-66.406,-13.672,91.797,0.000
1621213630.994,74.707,-66.895,-14.160,87.402,0.000
1621213630.998,64.941,-69.824,-20.508,77.148,0.000
1621213631.002,68.848,-62.988,-18.555,74.219,0.000
1621213631.006,66.895,-56.641,-24.414,68.848,0.000
1621213631.010,57.617,-57.129,-23.438,66.406,0.000
1621213631.014,50.781,-58.105,-16.113,73.242,0.000
1621213631.018,58.594,-62.012,-16.602,69.824,0.000
1621213631.022,60.059,-68.848,-15.137,65.918,0.000
1621213631.026,58.105,-69.824,-15.137,69.824,0.000
1621213631.030,54.688,-64.453,-17.090,65.430,0.000
1621213631.034,39.551,-59.082,-15.625,57.129,0.000
1621213631.038,50.293,-60.547,-16.602,58.105,0.000
1621213631.041,47.852,-65.918,-22.461,49.805,0.000
1621213631.045,35.156,-60.547,-19.531,41.992,0.000
1621213631.049,40.039,-57.617,-17.090,57.617,0.000
1621213631.053,49.316,-60.547,-15.137,61.035,0.000
1621213631.057,48.828,-55.664,-12.695,50.781,0.000
1621213631.061,36.621,-54.199,-12.695,52.734,0.000
1621213631.065,31.738,-56.641,-16.602,53.711,0.000
1621213631.069,34.668,-59.082,-16.602,43.457,0.000
1621213631.073,47.852,-58.105,-15.625,34.180,0.000
1621213631.077,46.387,-56.641,-17.578,31.250,0.000
1621213631.080,33.203,-74.219,-16.602,39.062,0.000
1621213631.084,31.250,-76.660,-17.578,39.551,0.000
1621213631.088,13.672,-54.199,-21.484,30.762,0.000
1621213631.092,0.488,-50.781,-19.043,25.391,0.000
1621213631.096,8.789,-55.664,-21.484,26.855,0.000
1621213631.100,14.160,-53.223,-28.809,17.090,0.000
1621213631.104,18.066,-52.246,-27.344,16.113,0.000
1621213631.108,26.367,-60.059,-28.320,20.508,0.000
1621213631.112,20.996,-58.105,-30.762,2.441,0.000
1621213631.116,16.602,-46.387,-20.020,1.465,0.000
1621213631.120,18.066,-52.734,-16.113,7.324,0.000
1621213631.123,21.973,-61.523,-25.879,6.348,0.000
1621213631.127,21.484,-50.781,-26.367,9.277,0.000
1621213631.131,15.137,-41.016,-23.926,7.812,0.000
1621213631.135,16.602,-42.480,-21.973,9.277,0.000
1621213631.139,13.672,-38.574,-13.672,19.043,0.000
1621213631.143,18.066,-36.621,-20.508,18.066,0.000
1621213631.147,11.230,-38.574,-30.762,8.301,0.000
1621213631.151,-3.418,-35.156,-27.344,3.906,0.000
1621213631.155,-10.742,-41.504,-24.902,1.953,0.000
1621213631.159,-11.230,-33.203,-29.785,-6.836,0.000
1621213631.163,-9.766,-27.832,-32.227,-14.160,0.000
1621213631.166,-6.836,-44.434,-31.738,-19.043,0.000
1621213631.170,-2.930,-45.898,-29.785,-14.648,0.000
1621213631.174,-6.836,-43.457,-29.297,-6.348,0.000
1621213631.178,-9.277,-42.480,-34.180,-14.160,0.000
1621213631.182,-9.766,-35.156,-33.203,-18.066,0.000
1621213631.186,-3.418,-47.363,-29.785,6.348,0.000
1621213631.190,12.695,-56.152,-31.738,25.391,0.000
1621213631.194,-7.324,-33.691,-26.367,-9.277,0.000
1621213631.198,-19.531,-23.926,-27.344,-35.645,0.000
1621213631.202,-3.418,-37.598,-33.691,-20.996,0.000
1621213631.206,8.789,-38.086,-30.273,-1.465,0.000
1621213631.209,12.695,-26.367,-29.297,-1.953,0.000
1621213631.213,17.578,-20.020,-38.574,-5.371,0.000
1621213631.217,16.602,-19.531,-51.270,-11.230,0.000
1621213631.221,27.832,-24.414,-53.711,-1.953,0.000
1621213631.225,42.969,-20.508,-49.316,13.672,0.000
1621213631.229,33.203,-15.625,-47.852,1.465,0.000
1621213631.233,40.527,-15.625,-49.316,14.160,0.000
1621213631.237,41.504,-19.043,-51.758,16.113,0.000
1621213631.241,37.109,-12.695,-52.246,8.789,0.000
1621213631.244,41.992,-14.160,-49.316,20.508,0.000
1621213631.249,38.574,-26.367,-46.875,18.555,0.000
1621213631.252,35.156,-17.578,-42.480,5.371,0.000
1621213631.256,26.367,-13.184,-44.434,-5.371,0.000
1621213631.260,23.926,-20.996,-45.898,4.395,0.000
1621213631.264,26.855,-27.832,-41.016,6.348,0.000
1621213631.268,16.113,-20.996,-40.527,-1.953,0.000
1621213631.272,7.324,-13.184,-36.133,8.301,0.000
1621213631.276,11.230,-17.090,-29.297,14.160,0.000
1621213631.280,13.672,-21.973,-32.227,-0.488,0.000
1621213631.284,12.695,-22.461,-33.203,-0.488,0.000
1621213631.287,13.672,-26.855,-31.250,10.742,0.000
1621213631.291,13.184,-28.809,-32.227,10.254,0.000
1621213631.295,12.207,-19.531,-35.156,1.953,0.000
1621213631.299,11.230,-16.113,-38.574,-10.742,0.000
1621213631.303,17.090,-23.438,-35.156,-4.883,0.000
1621213631.307,13.672,-23.926,-34.180,0.000,0.000
1621213631.311,12.207,-21.973,-33.203,-10.742,0.000
1621213631.315,10.254,-28.320,-29.785,-7.324,0.000
1621213631.319,-2.441,-28.320,-33.691,0.000,0.000
1621213631.323,-1.953,-29.297,-34.668,0.488,0.000
1621213631.327,4.883,-23.926,-25.391,3.418,0.000
1621213631.330,6.348,-24.902,-20.020,-4.395,0.000
1621213631.334,5.371,-31.738,-23.926,-11.230,0.000
1621213631.338,3.906,-23.926,-24.902,5.859,0.000
1621213631.342,2.441,-19.531,-19.531,11.719,0.000
1621213631.346,-0.977,-18.555,-21.973,8.301,0.000
1621213631.350,0.977,-15.137,-27.344,12.207,0.000
1621213631.354,-3.418,-25.391,-27.344,1.953,0.000
1621213631.358,-10.742,-30.762,-23.438,-8.789,0.000
1621213631.362,-10.742,-26.367,-26.855,-8.301,0.000
1621213631.366,-4.395,-32.715,-31.250,-10.254,0.000
1621213631.370,-9.277,-41.504,-32.715,-8.301,0.000
1621213631.373,-23.438,-32.227,-33.691,-3.418,0.000
1621213631.377,-13.184,-27.832,-29.297,-14.160,0.000
1621213631.381,-15.137,-28.809,-31.738,-15.625,0.000
1621213631.385,-18.066,-21.484,-37.109,-2.441,0.000
1621213631.389,-18.066,-18.555,-34.668,-8.301,0.000
1621213631.393,-33.203,-28.809,-31.738,-24.902,0.000
1621213631.397,-24.902,-37.598,-34.180,-33.203,0.000
1621213631.401,-21.973,-29.297,-37.109,-36.133,0.000
1621213631.405,-24.414,-24.414,-33.691,-23.438,0.000
1621213631.409,-21.973,-31.738,-33.691,-18.555,0.000
1621213631.412,-26.367,-33.691,-36.621,-20.020,0.000
1621213631.416,-33.691,-37.109,-38.574,-25.391,0.000
1621213631.420,-26.367,-37.109,-36.621,-23.926,0.000
1621213631.424,-15.625,-30.273,-37.109,-24.414,0.000
1621213631.428,-13.184,-30.762,-40.039,-25.879,0.000
1621213631.432,-20.020,-23.926,-40.527,-24.902,0.000
1621213631.436,-24.902,-28.809,-39.062,-28.809,0.000
1621213631.440,-13.672,-29.785,-34.180,-23.926,0.000
1621213631.444,-12.207,-18.555,-37.598,-29.297,0.000
1621213631.448,-31.250,-26.367,-39.062,-24.902,0.000
1621213631.452,-24.902,-35.156,-36.133,-20.020,0.000
1621213631.455,-18.066,-27.832,-40.039,-36.133,0.000
1621213631.459,-20.020,-22.461,-41.504,-36.133,0.000
1621213631.463,-20.020,-27.832,-38.086,-42.480,0.000
1621213631.467,-26.367,-33.203,-37.109,-44.434,0.000
1621213631.471,-20.508,-33.203,-36.133,-37.109,0.000
1621213631.475,-23.926,-36.621,-34.668,-34.180,0.000
1621213631.479,-26.367,-36.621,-34.180,-31.738,0.000
1621213631.483,-27.832,-34.180,-34.180,-32.227,0.000
1621213631.487,-26.367,-34.180,-40.039,-36.133,0.000
1621213631.491,-28.809,-35.645,-41.504,-36.133,0.000
1621213631.494,-34.668,-43.457,-35.156,-30.762,0.000
1621213631.498,-35.156,-43.945,-37.109,-36.621,0.000
1621213631.502,-34.668,-42.480,-35.156,-31.250,0.000
1621213631.506,-25.879,-39.062,-27.344,-18.555,0.000
1621213631.510,-19.531,-30.762,-30.273,-36.621,0.000
1621213631.514,-28.320,-33.691,-32.227,-41.992,0.000
1621213631.518,-23.926,-35.156,-29.785,-28.320,0.000
1621213631.522,-12.695,-29.785,-33.691,-25.879,0.000
1621213631.526,-29.297,-31.738,-36.621,-28.809,0.000
1621213631.530,-41.992,-33.203,-37.109,-29.297,0.000
1621213631.534,-33.203,-34.180,-42.480,-36.621,0.000
1621213631.537,-29.297,-39.062,-43.457,-35.156,0.000
1621213631.541,-35.645,-41.016,-34.668,-22.949,0.000
1621213631.545,-38.086,-39.062,-37.598,-25.879,0.000
1621213631.549,-37.109,-29.297,-41.504,-28.320,0.000
1621213631.553,-20.020,-27.344,-33.203,-16.602,0.000
1621213631.557,-21.973,-34.180,-33.691,-23.926,0.000
1621213631.561,-31.250,-36.621,-35.645,-28.809,0.000
1621213631.565,-17.090,-27.832,-29.785,-21.973,0.000
1621213631.569,-15.137,-36.621,-27.344,-23.438,0.000
1621213631.572,-22.461,-44.922,-29.297,-22.461,0.000
1621213631.577,-39.062,-28.809,-29.297,-23.438,0.000
1621213631.580,-37.598,-20.508,-28.320,-27.832,0.000
1621213631.584,-34.668,-25.879,-24.414,-28.809,0.000
1621213631.588,-38.574,-26.855,-25.879,-17.090,0.000
1621213631.592,-23.438,-29.785,-30.762,-18.555,0.000
1621213631.596,-26.855,-38.574,-27.344,-27.832,0.000
1621213631.600,-23.926,-33.691,-27.832,-23.926,0.000
1621213631.604,-9.766,-23.926,-35.645,-16.602,0.000
1621213631.608,-16.602,-26.367,-32.715,-10.254,0.000
1621213631.612,-22.461,-33.691,-30.273,-20.508,0.000
1621213631.615,-20.996,-34.668,-35.645,-24.902,0.000
1621213631.619,-19.531,-34.668,-34.668,-15.137,0.000
1621213631.623,-27.832,-40.527,-36.133,-21.973,0.000
1621213631.627,-26.367,-39.551,-36.133,-30.762,0.000
1621213631.631,-26.367,-40.527,-31.738,-30.762,0.000
1621213631.635,-36.621,-38.574,-34.180,-24.902,0.000
1621213631.639,-29.297,-27.344,-37.598,-19.531,0.000
1621213631.643,-7.812,-22.461,-30.273,-8.789,0.000
1621213631.647,-9.766,-27.832,-30.762,-20.020,0.000
1621213631.651,-28.809,-34.668,-37.109,-26.367,0.000
1621213631.655,-19.043,-36.133,-37.598,-18.066,0.000
1621213631.658,-15.625,-39.062,-32.227,-24.414,0.000
1621213631.662,-41.016,-35.156,-30.762,-29.297,0.000
1621213631.666,-33.203,-24.902,-36.133,-22.949,0.000
1621213631.670,-22.949,-31.250,-32.715,-16.602,0.000
1621213631.674,-31.738,-32.227,-27.344,-26.367,0.000
1621213631.678,-20.996,-24.902,-31.250,-31.250,0.000
1621213631.682,-20.508,-25.879,-36.133,-30.273,0.000
1621213631.686,-23.926,-28.320,-32.715,-41.016,0.000
1621213631.690,-20.508,-25.879,-32.227,-37.109,0.000
1621213631.694,-26.367,-30.273,-33.691,-21.484,0.000
1621213631.698,-36.133,-43.457,-33.203,-18.555,0.000
1621213631.701,-33.691,-38.086,-33.691,-22.949,0.000
1621213631.705,-28.320,-35.156,-32.227,-29.297,0.000
1621213631.709,-12.207,-39.062,-28.809,-21.484,0.000
1621213631.713,-20.996,-40.039,-30.762,-31.738,0.000
1621213631.717,-33.203,-38.086,-33.203,-39.551,0.000
1621213631.721,-32.227,-26.855,-27.344,-22.949,0.000
1621213631.725,-40.527,-29.785,-30.762,-16.113,0.000
1621213631.729,-35.645,-36.133,-34.668,-11.719,0.000
1621213631.733,-31.250,-31.250,-32.715,-17.090,0.000
1621213631.737,-37.109,-33.203,-36.621,-22.461,0.000
1621213631.741,-25.879,-35.156,-40.039,-20.020,0.000
1621213631.744,-14.160,-34.668,-38.086,-21.484,0.000
1621213631.748,-26.855,-39.551,-40.527,-30.273,0.000
1621213631.752,-27.832,-39.551,-39.062,-30.273,0.000
1621213631.756,-24.414,-35.645,-34.180,-20.508,0.000
1621213631.760,-25.391,-32.715,-38.086,-25.879,0.000
1621213631.764,-18.555,-18.066,-41.016,-37.109,0.000
1621213631.768,-12.695,-15.625,-38.574,-32.227,0.000
1621213631.772,-17.578,-22.949,-45.898,-29.785,0.000
1621213631.776,-16.113,-23.438,-51.270,-18.555,0.000
1621213631.780,-7.324,-33.691,-46.875,-9.277,0.000
1621213631.783,-18.066,-40.039,-43.945,-22.949,0.000
1621213631.787,-35.645,-30.762,-41.992,-27.344,0.000
1621213631.791,-31.738,-29.297,-36.133,-34.668,0.000
1621213631.795,-38.086,-28.809,-34.668,-44.434,0.000
1621213631.799,-50.781,-29.297,-37.109,-40.039,0.000
1621213631.803,-43.457,-30.762,-39.062,-40.527,0.000
1621213631.807,-41.016,-32.227,-33.203,-46.387,0.000
1621213631.811,-52.246,-36.133,-37.109,-56.641,0.000
1621213631.815,-62.500,-29.785,-46.387,-56.152,0.000
1621213631.819,-67.871,-33.691,-48.828,-54.199,0.000
1621213631.823,-60.547,-42.480,-50.293,-68.359,0.000
1621213631.826,-58.594,-37.109,-51.270,-73.242,0.000
1621213631.830,-63.965,-34.668,-52.734,-67.871,0.000
1621213631.834,-43.945,-42.480,-55.176,-68.359,0.000
1621213631.838,-45.410,-53.711,-51.270,-60.547,0.000
1621213631.842,-56.152,-43.457,-45.898,-50.781,0.000
1621213631.846,-39.062,-30.762,-42.480,-44.922,0.000
1621213631.850,-36.133,-31.250,-40.527,-44.922,0.000
1621213631.854,-36.621,-28.809,-41.992,-47.363,0.000
1621213631.858,-28.320,-32.227,-45.410,-35.645,0.000
1621213631.862,-33.691,-36.621,-51.270,-37.598,0.000
1621213631.865,-39.551,-37.598,-47.363,-47.363,0.000
1621213631.869,-41.992,-41.016,-41.992,-46.387,0.000
1621213631.873,-28.809,-35.645,-46.387,-40.527,0.000
1621213631.877,-26.367,-36.621,-41.016,-22.461,0.000
1621213631.881,-39.062,-40.527,-34.180,-20.020,0.000
1621213631.885,-26.367,-32.715,-30.762,-23.926,0.000
1621213631.889,-23.926,-29.297,-28.320,-19.043,0.000
1621213631.893,-35.645,-29.297,-31.738,-19.531,0.000
1621213631.897,-39.551,-27.344,-31.738,-23.926,0.000
1621213631.900,-36.621,-33.691,-36.621,-24.902,0.000
1621213631.905,-28.320,-39.551,-42.969,-25.391,0.000
1621213631.908,-27.832,-39.062,-35.156,-31.738,0.000
1621213631.912,-32.227,-36.133,-26.855,-22.461,0.000
1621213631.916,-36.133,-34.180,-29.297,-18.555,0.000
1621213631.920,-39.551,-35.156,-34.180,-28.320,0.000
1621213631.924,-30.762,-41.016,-35.156,-18.555,0.000
1621213631.928,-24.902,-47.852,-33.691,-20.020,0.000
1621213631.932,-30.762,-43.945,-33.691,-24.902,0.000
1621213631.936,-29.297,-28.320,-37.109,-20.020,0.000
1621213631.940,-25.391,-24.414,-36.133,-25.879,0.000
1621213631.943,-24.414,-28.809,-33.691,-31.250,0.000
1621213631.947,-21.484,-28.320,-31.738,-28.320,0.000
1621213631.951,-24.414,-23.438,-32.715,-21.973,0.000
1621213631.955,-24.414,-24.414,-35.645,-17.578,0.000
1621213631.959,-16.602,-19.043,-33.203,-15.137,0.000
1621213631.963,-4.883,-14.648,-32.715,-20.020,0.000
1621213631.967,-5.859,-19.531,-37.598,-20.020,0.000
1621213631.971,-4.395,-17.090,-37.109,-13.672,0.000
1621213631.975,-10.254,-18.066,-36.133,-17.090,0.000
1621213631.979,-27.832,-21.973,-33.203,-28.809,0.000
1621213631.983,-23.926,-22.461,-30.273,-25.879,0.000
1621213631.986,-14.648,-25.391,-31.738,-20.020,0.000
1621213631.990,-17.090,-26.855,-34.180,-23.926,0.000
1621213631.994,-37.109,-29.785,-34.180,-23.438,0.000
1621213631.998,-38.574,-25.391,-34.180,-29.297,0.000
1621213632.002,-23.926,-21.973,-33.691,-23.926,0.000
1621213632.006,-14.160,-24.902,-31.250,-5.371,0.000
1621213632.010,-16.602,-25.879,-32.227,-6.348,0.000
1621213632.014,-27.344,-26.367,-31.250,-5.859,0.000
1621213632.018,-21.973,-24.414,-31.250,-9.277,0.000
1621213632.022,-2.930,-23.926,-40.527,-10.254,0.000
1621213632.026,-18.555,-26.855,-40.039,-4.395,0.000
1621213632.029,-27.832,-29.785,-35.645,-11.230,0.000
1621213632.033,-18.555,-29.785,-36.133,-13.184,0.000
1621213632.037,-20.508,-29.297,-38.086,-29.785,0.000
1621213632.041,-22.949,-28.320,-38.574,-36.133,0.000
1621213632.045,-15.625,-28.809,-37.598,-32.715,0.000
1621213632.049,-9.766,-26.367,-34.180,-45.410,0.000
1621213632.053,-15.137,-25.391,-32.227,-42.480,0.000
1621213632.057,-10.254,-25.879,-39.062,-33.203,0.000
1621213632.061,-15.625,-25.391,-41.504,-34.180,0.000
1621213632.065,-19.043,-29.785,-44.922,-45.410,0.000
1621213632.069,-13.184,-23.926,-47.363,-28.809,0.000
1621213632.072,-26.855,-18.066,-40.039,-3.418,0.000
1621213632.076,-32.715,-27.344,-38.574,-43.945,0.000
1621213632.080,-22.461,-32.715,-34.668,-67.871,0.000
1621213632.084,-38.086,-23.438,-37.598,-44.434,0.000
1621213632.088,-46.387,-16.113,-42.969,-41.016,0.000
1621213632.092,-29.785,-20.020,-38.574,-39.551,0.000
1621213632.096,-35.645,-24.902,-36.133,-36.133,0.000
1621213632.100,-32.227,-28.809,-34.668,-41.992,0.000
1621213632.104,-29.785,-25.879,-35.156,-56.152,0.000
1621213632.108,-48.828,-24.902,-29.785,-39.062,0.000
1621213632.112,-32.715,-26.855,-25.879,-26.855,0.000
1621213632.115,-12.695,-27.832,-37.109,-37.109,0.000
1621213632.119,-20.508,-28.320,-50.293,-49.805,0.000
1621213632.123,-31.738,-21.973,-41.992,-56.641,0.000
1621213632.127,-35.645,-27.832,-36.621,-56.152,0.000
1621213632.131,-9.277,-29.297,-38.574,-44.922,0.000
1621213632.135,-25.391,-24.414,-34.180,-40.527,0.000
1621213632.139,-45.410,-21.484,-30.762,-45.898,0.000
1621213632.143,-40.039,-17.578,-30.762,-40.527,0.000
1621213632.147,-54.688,-24.902,-40.039,-45.410,0.000
1621213632.151,-47.852,-29.297,-37.598,-43.945,0.000
1621213632.155,-58.105,-28.809,-32.227,-46.875,0.000
1621213632.158,-64.941,-35.645,-35.156,-41.992,0.000
1621213632.162,-49.316,-44.434,-35.645,-28.320,0.000
1621213632.166,-51.758,-27.344,-39.551,-46.875,0.000
1621213632.170,-62.988,-20.508,-41.504,-67.383,0.000
1621213632.174,-66.895,-30.762,-44.922,-65.918,0.000
1621213632.178,-104.004,-32.227,-49.316,-94.238,0.000
1621213632.182,-137.207,-33.203,-55.664,-127.441,0.000
1621213632.186,-124.023,-30.762,-59.570,-120.117,0.000
1621213632.190,-135.742,-33.203,-58.594,-126.465,0.000
1621213632.194,-145.020,-33.691,-56.641,-142.578,0.000
1621213632.197,-120.605,-30.273,-60.547,-158.203,0.000
1621213632.201,-133.789,-28.809,-67.871,-152.832,0.000
1621213632.205,-149.902,-27.832,-69.336,-158.691,0.000
1621213632.209,-131.836,-32.715,-73.242,-159.180,0.000
1621213632.213,-136.230,-42.480,-68.848,-148.926,0.000
1621213632.217,-147.461,-40.527,-62.012,-145.996,0.000
1621213632.221,-131.348,-32.227,-64.941,-132.812,0.000
1621213632.225,-114.258,-24.902,-66.895,-126.953,0.000
1621213632.229,-118.164,-28.320,-60.547,-115.234,0.000
1621213632.233,-114.258,-28.320,-58.105,-128.906,0.000
1621213632.236,-102.051,-17.090,-57.617,-128.418,0.000
1621213632.240,-96.191,-16.113,-47.852,-99.121,0.000
1621213632.244,-92.773,-25.391,-40.039,-94.727,0.000
1621213632.248,-93.750,-30.273,-41.504,-98.145,0.000
1621213632.252,-77.148,-27.832,-47.363,-90.820,0.000
1621213632.256,-69.824,-24.902,-48.340,-79.590,0.000
1621213632.260,-74.707,-27.832,-44.434,-78.125,0.000
1621213632.264,-66.895,-28.320,-38.574,-79.590,0.000
1621213632.268,-80.566,-24.414,-39.062,-79.102,0.000
1621213632.272,-83.496,-28.809,-43.457,-72.266,0.000
1621213632.275,-57.617,-32.715,-43.457,-69.824,0.000
1621213632.280,-37.109,-36.621,-32.715,-41.016,0.000
1621213632.283,-47.363,-32.715,-27.832,-33.203,0.000
1621213632.287,-61.523,-28.320,-30.273,-60.059,0.000
1621213632.291,-49.805,-31.250,-24.414,-45.410,0.000
1621213632.295,-53.711,-38.574,-18.066,-34.668,0.000
1621213632.299,-54.199,-31.738,-20.020,-27.344,0.000
1621213632.303,-40.039,-20.020,-20.996,-21.484,0.000
1621213632.307,-39.551,-21.484,-23.926,-25.879,0.000
1621213632.311,-26.855,-26.855,-28.809,-27.832,0.000
1621213632.315,-24.902,-33.203,-33.691,-29.785,0.000
1621213632.318,-27.832,-29.297,-36.133,-15.137,0.000
1621213632.322,-7.812,-22.949,-32.227,-5.859,0.000
1621213632.326,-7.812,-26.855,-32.715,-23.926,0.000
1621213632.330,-15.137,-34.668,-24.414,-20.996,0.000
1621213632.334,-20.020,-40.527,-20.020,-18.066,0.000
1621213632.338,-20.996,-34.180,-28.809,-18.555,0.000
1621213632.342,-0.488,-22.461,-25.391,3.418,0.000
1621213632.346,-0.488,-25.391,-24.902,-19.531,0.000
1621213632.350,-8.301,-28.809,-29.785,-36.621,0.000
1621213632.354,-14.648,-31.738,-31.738,-20.996,0.000
1621213632.358,-30.762,-35.645,-34.668,-19.043,0.000
1621213632.361,-25.879,-36.133,-32.227,-12.695,0.000
1621213632.365,-12.695,-35.645,-24.414,-1.953,0.000
1621213632.369,-10.742,-36.133,-21.484,2.930,0.000
1621213632.373,-2.441,-33.203,-28.320,1.953,0.000
1621213632.377,2.930,-29.297,-32.227,-2.441,0.000
1621213632.381,-3.906,-32.715,-23.438,-0.488,0.000
1621213632.385,-22.949,-34.668,-20.508,-0.488,0.000
1621213632.389,-13.184,-26.855,-22.461,1.465,0.000
1621213632.393,-3.906,-28.809,-19.531,1.953,0.000
1621213632.397,-15.137,-27.832,-20.996,-8.301,0.000
1621213632.401,-14.648,-19.043,-20.508,-17.090,0.000
1621213632.404,-10.742,-23.926,-20.508,-11.230,0.000
1621213632.408,-1.465,-27.832,-18.066,-10.254,0.000
1621213632.412,-4.395,-29.785,-15.625,-19.531,0.000
1621213632.416,-19.043,-31.738,-17.090,-18.066,0.000
1621213632.420,-23.438,-34.180,-18.066,-13.184,0.000
1621213632.424,-12.695,-31.738,-21.484,-16.602,0.000
1621213632.428,-10.254,-33.203,-21.973,-6.348,0.000
1621213632.432,-13.672,-39.551,-24.414,-12.207,0.000
1621213632.436,-16.113,-35.645,-29.785,-21.484,0.000
1621213632.440,-25.879,-26.855,-26.855,-12.207,0.000
1621213632.444,-27.344,-30.273,-24.902,-18.066,0.000
1621213632.447,-15.137,-31.250,-25.391,-14.648,0.000
1621213632.451,0.488,-18.555,-38.574,-0.977,0.000
1621213632.455,15.137,-4.395,-44.434,-1.465,0.000
1621213632.459,-3.906,-19.531,-20.020,-0.977,0.000
1621213632.463,-29.297,-41.992,-17.090,-12.695,0.000
1621213632.467,-22.949,-34.668,-27.344,-18.066,0.000
1621213632.471,-16.113,-36.621,-24.414,-5.859,0.000
1621213632.475,-22.461,-50.293,-22.949,-0.488,0.000
1621213632.479,-26.855,-51.270,-19.531,0.000,0.000
1621213632.483,-20.020,-43.945,-16.113,-8.789,0.000
1621213632.486,-15.137,-39.062,-17.090,-14.648,0.000
1621213632.490,-1.953,-43.457,-20.020,1.953,0.000
1621213632.494,-1.953,-46.387,-16.602,10.742,0.000
1621213632.498,-18.066,-45.410,-14.160,1.465,0.000
1621213632.502,-19.531,-42.480,-12.207,6.836,0.000
1621213632.506,-13.672,-42.480,-19.531,-6.836,0.000
1621213632.510,-22.949,-40.527,-28.809,-26.855,0.000
1621213632.514,-34.180,-40.039,-26.855,-20.508,0.000
1621213632.518,-32.715,-42.480,-24.902,-13.184,0.000
1621213632.522,-30.273,-41.504,-30.273,-19.531,0.000
1621213632.526,-40.039,-46.387,-34.180,-23.926,0.000
1621213632.529,-58.105,-47.363,-35.645,-25.391,0.000
1621213632.533,-53.223,-44.922,-39.551,-33.691,0.000
1621213632.537,-52.246,-44.922,-37.598,-33.691,0.000
1621213632.541,-71.289,-41.992,-38.086,-28.809,0.000
1621213632.545,-74.219,-43.945,-41.504,-41.504,0.000
1621213632.549,-48.828,-41.016,-38.086,-39.062,0.000
1621213632.553,-52.246,-42.969,-35.156,-26.367,0.000
1621213632.557,-72.266,-53.711,-36.133,-35.645,0.000
1621213632.561,-53.711,-52.734,-31.738,-40.039,0.000
1621213632.565,-50.781,-49.316,-32.227,-38.086,0.000
1621213632.568,-64.453,-45.410,-34.180,-44.922,0.000
1621213632.572,-56.152,-41.016,-34.668,-48.340,0.000
1621213632.576,-45.898,-38.574,-35.645,-40.039,0.000
1621213632.580,-21.484,-35.156,-33.691,-36.621,0.000
1621213632.584,-24.414,-35.156,-31.738,-29.297,0.000
1621213632.588,-38.574,-42.969,-36.133,-24.902,0.000
1621213632.592,-30.273,-43.457,-36.133,-30.273,0.000
1621213632.596,-41.016,-35.645,-34.180,-38.574,0.000
1621213632.600,-53.711,-30.273,-36.133,-35.156,0.000
1621213632.604,-47.363,-29.297,-29.297,-18.555,0.000
1621213632.608,-23.926,-28.809,-22.949,-13.672,0.000
1621213632.612,-12.207,-32.227,-18.555,-5.371,0.000
1621213632.615,-11.230,-32.227,-22.461,-4.395,0.000
1621213632.619,-12.207,-28.809,-32.715,-12.695,0.000
1621213632.623,-6.348,-20.020,-31.250,-11.230,0.000
1621213632.627,-11.230,-21.973,-22.949,-9.766,0.000
1621213632.631,-22.461,-31.250,-24.414,-4.883,0.000
1621213632.635,-20.020,-22.949,-29.785,-20.508,0.000
1621213632.639,-23.926,-20.020,-31.738,-37.109,0.000
1621213632.643,-22.461,-25.879,-30.273,-21.484,0.000
1621213632.647,-14.648,-23.438,-34.180,-27.832,0.000
1621213632.650,-19.531,-23.926,-38.086,-44.434,0.000
1621213632.655,-39.062,-33.691,-37.598,-34.668,0.000
1621213632.659,-46.387,-37.109,-31.250,-34.180,0.000
1621213632.662,-39.551,-32.227,-29.297,-32.227,0.000
1621213632.666,-42.969,-35.156,-32.227,-21.973,0.000
1621213632.670,-33.691,-31.738,-27.344,-20.508,0.000
1621213632.674,-35.645,-27.344,-28.809,-41.504,0.000
1621213632.678,-32.227,-25.879,-34.668,-59.082,0.000
1621213632.682,-26.855,-25.391,-35.156,-62.500,0.000
1621213632.686,-46.387,-29.297,-33.691,-60.059,0.000
1621213632.690,-53.711,-24.902,-34.668,-40.039,0.000
1621213632.694,-48.340,-20.020,-40.039,-41.016,0.000
1621213632.697,-44.922,-21.484,-39.062,-54.688,0.000
1621213632.702,-48.340,-25.391,-39.551,-56.641,0.000
1621213632.705,-33.691,-31.250,-49.805,-45.410,0.000
1621213632.709,-2.930,-20.508,-51.758,-31.250,0.000
1621213632.713,-23.438,-16.602,-35.645,-39.551,0.000
1621213632.717,-50.293,-19.043,-27.344,-49.805,0.000
1621213632.721,-44.434,-18.066,-29.297,-29.785,0.000
1621213632.725,-25.879,-29.297,-35.645,-24.902,0.000
1621213632.729,-17.090,-30.273,-38.574,-47.363,0.000
1621213632.733,-27.832,-23.926,-33.691,-52.734,0.000
1621213632.737,5.859,-21.973,-23.926,-6.348,0.000
1621213632.740,5.371,-24.902,-20.020,1.953,0.000
1621213632.744,-45.898,-26.855,-30.762,-22.949,0.000
1621213632.748,-39.062,-24.414,-32.715,-20.996,0.000
1621213632.752,-22.461,-21.973,-30.762,-25.879,0.000
1621213632.756,-8.301,-22.949,-34.180,-26.367,0.000
1621213632.760,-2.441,-29.297,-37.109,-22.949,0.000
1621213632.764,-15.137,-31.738,-36.133,-22.949,0.000
1621213632.768,-17.578,-29.785,-24.902,-11.719,0.000
1621213632.772,-6.348,-27.344,-21.973,7.324,0.000
1621213632.776,16.113,-19.043,-15.137,28.320,0.000
1621213632.780,22.461,-22.461,-9.277,20.508,0.000
1621213632.783,11.230,-31.738,-14.648,-3.418,0.000
1621213632.787,24.902,-24.902,-13.184,19.043,0.000
1621213632.791,51.270,-22.461,-7.812,55.664,0.000
1621213632.795,48.340,-25.879,-5.859,55.664,0.000
1621213632.799,55.176,-28.320,-6.348,49.805,0.000
1621213632.803,43.457,-39.551,-8.789,52.734,0.000
1621213632.807,32.715,-44.434,-11.230,54.199,0.000
1621213632.811,48.340,-42.480,-12.695,59.082,0.000
1621213632.815,46.387,-41.992,-11.230,60.547,0.000
1621213632.819,31.250,-32.715,-12.695,48.340,0.000
1621213632.823,24.902,-33.691,-12.695,48.340,0.000
1621213632.826,42.480,-35.645,-10.254,58.105,0.000
1621213632.830,42.480,-25.879,-10.254,43.457,0.000
1621213632.834,26.367,-23.438,-18.555,32.227,0.000
1621213632.838,32.227,-25.391,-24.414,40.527,0.000
1621213632.842,24.902,-27.832,-24.414,28.320,0.000
1621213632.846,32.227,-40.039,-25.879,15.625,0.000
1621213632.850,25.391,-46.387,-25.879,15.625,0.000
1621213632.854,9.277,-31.250,-19.043,20.020,0.000
1621213632.858,15.137,-28.809,-17.578,8.301,0.000
1621213632.862,15.625,-31.738,-22.949,6.836,0.000
1621213632.865,17.578,-21.973,-21.973,12.207,0.000
1621213632.869,12.695,-17.578,-19.531,8.789,0.000
1621213632.873,5.859,-26.367,-20.020,5.859,0.000
1621213632.877,2.441,-25.879,-22.949,-1.465,0.000
1621213632.881,8.789,-25.391,-29.297,-3.418,0.000
1621213632.885,4.883,-33.203,-31.250,-6.836,0.000
1621213632.889,-2.930,-34.668,-24.902,-6.348,0.000
1621213632.893,-13.184,-29.297,-21.484,-1.953,0.000
1621213632.897,2.441,-17.090,-25.391,-9.277,0.000
1621213632.901,11.719,-17.090,-24.902,6.836,0.000
1621213632.905,-10.742,-27.344,-26.367,10.254,0.000
1621213632.909,-20.020,-30.762,-31.738,-33.203,0.000
1621213632.912,-10.742,-27.344,-34.668,-45.898,0.000
1621213632.916,-8.789,-31.738,-35.156,-26.367,0.000
1621213632.920,-10.254,-26.367,-31.250,-13.184,0.000
1621213632.924,-2.930,-18.066,-25.391,-11.719,0.000
1621213632.928,-6.348,-21.973,-26.367,-21.973,0.000
1621213632.932,-22.461,-23.926,-25.879,-19.043,0.000
1621213632.936,-24.414,-27.832,-22.949,-4.395,0.000
1621213632.940,-24.414,-33.203,-26.367,-0.488,0.000
1621213632.944,-22.949,-25.391,-29.297,-4.395,0.000
1621213632.948,-5.371,-17.090,-25.391,6.348,0.000
1621213632.951,1.465,-18.066,-24.414,4.395,0.000
1621213632.955,-6.836,-22.949,-34.180,-23.926,0.000
1621213632.959,-20.020,-21.484,-41.992,-27.832,0.000
1621213632.963,-20.996,-19.043,-42.480,-25.391,0.000
1621213632.967,-16.113,-15.137,-48.828,-27.832,0.000
1621213632.971,-7.812,-6.836,-47.852,-26.367,0.000
1621213632.975,-8.301,-9.277,-48.828,-21.484,0.000
1621213632.979,-13.672,-18.066,-54.199,-16.113,0.000
1621213632.983,-13.184,-20.508,-50.293,-21.973,0.000
1621213632.987,-12.695,-23.438,-47.363,-19.043,0.000
1621213632.991,-10.742,-33.203,-43.945,-11.230,0.000
1621213632.995,-6.348,-27.344,-41.016,-12.207,0.000
1621213632.998,-6.836,-23.926,-44.922,-17.578,0.000
1621213633.002,-8.301,-24.902,-44.922,-5.859,0.000
1621213633.006,4.883,-19.043,-38.574,6.348,0.000
1621213633.010,5.371,-24.902,-42.480,-13.184,0.000
1621213633.014,-10.742,-30.762,-44.434,-17.090,0.000
1621213633.018,1.465,-24.414,-43.457,-7.324,0.000
1621213633.022,14.160,-17.090,-47.852,-14.648,0.000
1621213633.026,-2.441,-19.043,-45.410,-12.207,0.000
1621213633.030,-14.648,-19.043,-42.480,-8.301,0.000
1621213633.034,-20.508,-17.090,-43.457,-23.926,0.000
1621213633.038,-18.555,-23.926,-43.457,-20.020,0.000
1621213633.041,-16.113,-18.066,-41.504,-4.395,0.000
1621213633.045,-12.207,-10.254,-36.133,-6.836,0.000
1621213633.049,-16.602,-20.020,-35.156,-19.043,0.000
1621213633.053,-27.344,-27.344,-39.551,-14.648,0.000
1621213633.057,-17.090,-26.367,-41.992,-1.953,0.000
1621213633.061,-16.113,-22.461,-39.062,-5.859,0.000
1621213633.065,-24.414,-24.414,-37.598,-10.742,0.000
1621213633.069,-20.020,-30.273,-40.039,-19.043,0.000
1621213633.073,-4.883,-30.762,-41.016,-27.832,0.000
1621213633.077,0.000,-30.273,-39.551,-28.809,0.000
1621213633.081,-20.020,-34.668,-41.504,-39.551,0.000
1621213633.084,-25.391,-30.273,-45.410,-31.250,0.000
1621213633.088,-18.066,-31.250,-45.898,-17.090,0.000
1621213633.092,-15.625,-36.621,-45.898,-29.297,0.000
1621213633.096,-15.625,-28.809,-40.527,-36.621,0.000
1621213633.100,-27.344,-30.273,-35.156,-34.668,0.000
1621213633.104,-37.109,-32.715,-37.598,-30.273,0.000
1621213633.108,-32.227,-34.180,-37.598,-23.438,0.000
1621213633.112,-26.855,-32.227,-38.086,-23.926,0.000
1621213633.116,-45.898,-31.738,-33.691,-32.227,0.000
1621213633.119,-51.270,-32.227,-31.250,-18.555,0.000
1621213633.124,-33.203,-32.227,-35.156,-6.348,0.000
1621213633.127,-24.414,-37.598,-32.227,-12.207,0.000
1621213633.131,-24.902,-35.645,-34.180,-19.043,0.000
1621213633.135,-24.414,-24.414,-39.551,-17.578,0.000
1621213633.139,-31.250,-23.926,-36.621,-11.719,0.000
1621213633.143,-41.504,-26.367,-31.738,-9.766,0.000
1621213633.147,-30.273,-25.879,-28.320,-19.531,0.000
1621213633.151,-11.230,-25.391,-29.785,-30.273,0.000
1621213633.155,-12.695,-29.785,-31.738,-22.949,0.000
1621213633.159,-29.785,-30.762,-29.297,-25.879,0.000
1621213633.162,-20.508,-30.273,-29.785,-31.738,0.000
1621213633.166,-20.996,-33.691,-31.738,-30.762,0.000
1621213633.170,-41.016,-36.133,-28.320,-20.020,0.000
1621213633.174,-26.367,-37.109,-27.344,-10.742,0.000
1621213633.178,-20.020,-23.438,-28.809,-12.207,0.000
1621213633.182,-28.320,-18.066,-27.832,-18.555,0.000
1621213633.186,-28.809,-24.902,-30.273,-16.113,0.000
1621213633.190,-24.414,-17.578,-43.945,-21.973,0.000
1621213633.194,-21.973,-12.207,-46.875,-27.344,0.000
1621213633.198,-26.367,-7.324,-39.551,-21.973,0.000
1621213633.202,-28.320,-0.488,-51.758,-27.832,0.000
1621213633.205,-33.203,-0.488,-64.941,-36.621,0.000
1621213633.209,-41.992,-12.207,-62.012,-38.086,0.000
1621213633.213,-35.156,-18.555,-53.711,-38.086,0.000
1621213633.217,-20.996,-16.602,-46.875,-30.762,0.000
1621213633.221,-16.602,-20.020,-44.922,-24.902,0.000
1621213633.225,-1.953,-26.367,-49.316,-30.273,0.000
1621213633.229,-14.160,-28.320,-50.293,-30.273,0.000
1621213633.233,-25.879,-23.438,-51.270,-23.926,0.000
1621213633.237,-21.484,-27.344,-47.852,-19.043,0.000
1621213633.241,-16.602,-29.297,-41.992,-30.273,0.000
1621213633.245,-18.066,-20.020,-45.898,-28.320,0.000
1621213633.248,-15.625,-22.461,-52.246,-20.508,0.000
1621213633.252,-19.531,-23.926,-52.734,-24.414,0.000
1621213633.256,-20.996,-25.391,-47.363,-26.367,0.000
1621213633.260,-16.113,-29.785,-41.992,-22.461,0.000
1621213633.264,-22.949,-25.879,-38.086,-18.555,0.000
1621213633.268,-11.719,-22.461,-38.574,-16.602,0.000
1621213633.272,-8.789,-21.973,-40.039,-18.555,0.000
1621213633.276,-9.766,-25.879,-39.062,-18.066,0.000
1621213633.280,7.812,-24.414,-34.180,-13.184,0.000
1621213633.284,-6.348,-36.133,-34.180,-12.207,0.000
1621213633.287,-29.297,-39.062,-37.598,-2.441,0.000
1621213633.291,-15.625,-21.484,-38.086,-2.441,0.000
1621213633.295,-8.301,-22.949,-32.715,-9.277,0.000
1621213633.299,-9.766,-30.273,-29.785,-3.906,0.000
1621213633.303,-3.906,-31.250,-25.391,8.789,0.000
1621213633.307,-0.977,-30.273,-26.367,5.859,0.000
1621213633.311,-5.859,-29.785,-29.297,-8.301,0.000
1621213633.315,-17.090,-30.762,-32.715,-18.555,0.000
1621213633.319,-6.836,-41.016,-32.715,-23.926,0.000
1621213633.323,-2.441,-40.039,-28.809,-27.344,0.000
1621213633.327,-26.367,-24.902,-29.297,-27.344,0.000
1621213633.330,-37.109,-29.785,-30.273,-29.297,0.000
1621213633.334,-21.484,-31.250,-32.227,-28.320,0.000
1621213633.338,-15.137,-21.973,-33.203,-20.996,0.000
1621213633.342,-15.137,-16.602,-30.273,-4.883,0.000
1621213633.346,-12.695,-20.020,-27.344,-3.418,0.000
1621213633.350,-21.973,-26.855,-26.855,-28.320,0.000
1621213633.354,-29.785,-28.809,-32.227,-38.086,0.000
1621213633.358,-32.227,-26.855,-34.668,-33.203,0.000
1621213633.362,-28.320,-33.203,-32.227,-35.645,0.000
1621213633.366,-29.785,-32.227,-34.180,-35.645,0.000
1621213633.369,-27.832,-27.832,-34.180,-38.574,0.000
1621213633.373,-30.762,-32.227,-35.645,-38.574,0.000
1621213633.377,-31.738,-39.062,-37.109,-30.273,0.000
1621213633.381,-37.598,-39.551,-38.574,-43.945,0.000
1621213633.385,-50.781,-40.527,-40.527,-57.129,0.000
1621213633.389,-46.387,-39.551,-39.551,-45.410,0.000
1621213633.393,-40.527,-33.203,-35.645,-27.832,0.000
1621213633.397,-42.969,-31.250,-33.691,-34.180,0.000
1621213633.401,-37.109,-28.320,-38.086,-40.039,0.000
1621213633.405,-36.133,-29.785,-33.691,-34.668,0.000
1621213633.409,-30.762,-31.738,-37.109,-43.457,0.000
1621213633.412,-25.391,-30.762,-45.898,-65.430,0.000
1621213633.416,-35.645,-34.180,-40.527,-42.480,0.000
1621213633.420,-26.367,-30.273,-37.598,-27.344,0.000
1621213633.424,-38.574,-30.762,-41.016,-43.945,0.000
1621213633.428,-43.945,-34.180,-39.551,-48.828,0.000
1621213633.432,-48.340,-34.180,-35.156,-62.988,0.000
1621213633.436,-57.129,-37.109,-37.598,-67.871,0.000
1621213633.440,-59.082,-36.133,-44.434,-37.109,0.000
1621213633.444,-83.496,-38.574,-49.316,-30.762,0.000
1621213633.447,-69.824,-39.062,-48.340,-58.594,0.000
1621213633.452,-68.848,-32.715,-47.852,-58.105,0.000
1621213633.455,-80.566,-37.598,-57.129,-40.039,0.000
1621213633.459,-60.059,-39.551,-55.176,-41.016,0.000
1621213633.463,-60.547,-34.180,-45.898,-42.480,0.000
1621213633.467,-66.406,-35.156,-45.410,-26.855,0.000
1621213633.471,-55.176,-32.715,-39.062,-41.992,0.000
1621213633.475,-29.785,-32.227,-31.250,-39.551,0.000
1621213633.479,-40.527,-37.109,-36.621,-18.555,0.000
1621213633.483,-56.152,-34.668,-43.457,-31.250,0.000
1621213633.487,-30.273,-26.855,-44.434,-18.066,0.000
1621213633.490,-37.109,-37.598,-44.922,-37.598,0.000
1621213633.494,-55.176,-48.828,-46.387,-66.406,0.000
1621213633.498,-50.781,-37.109,-40.039,-53.711,0.000
1621213633.502,-38.086,-27.832,-31.738,-35.156,0.000
1621213633.506,-42.969,-28.320,-33.203,-31.738,0.000
1621213633.510,-47.852,-32.227,-42.969,-42.969,0.000
1621213633.514,-39.062,-24.414,-49.316,-39.062,0.000
1621213633.518,-54.688,-26.367,-44.434,-36.133,0.000
1621213633.522,-62.500,-37.109,-34.180,-36.133,0.000
1621213633.526,-56.641,-29.785,-35.645,-40.527,0.000
1621213633.530,-55.664,-28.320,-39.062,-35.156,0.000
1621213633.533,-51.758,-33.691,-38.086,-28.809,0.000
1621213633.537,-47.852,-27.832,-42.969,-39.551,0.000
1621213633.541,-41.504,-30.762,-49.316,-41.016,0.000
1621213633.545,-43.945,-35.156,-41.016,-39.062,0.000
1621213633.549,-50.781,-35.156,-41.016,-43.945,0.000
1621213633.553,-54.199,-36.621,-44.434,-29.297,0.000
1621213633.557,-61.523,-32.227,-46.387,-35.645,0.000
1621213633.561,-63.477,-35.156,-52.246,-48.828,0.000
1621213633.565,-59.570,-37.109,-55.664,-53.711,0.000
1621213633.569,-55.176,-34.180,-65.918,-59.570,0.000
1621213633.573,-29.297,-29.297,-62.988,-42.480,0.000
1621213633.576,-40.039,-38.086,-38.086,-42.480,0.000
1621213633.580,-57.617,-41.992,-32.227,-61.523,0.000
1621213633.584,-46.875,-39.062,-33.691,-45.898,0.000
1621213633.588,-60.059,-34.668,-34.180,-55.176,0.000
1621213633.592,-75.195,-38.574,-42.480,-69.824,0.000
1621213633.596,-62.012,-42.969,-41.504,-41.504,0.000
1621213633.600,-59.570,-38.574,-38.574,-35.645,0.000
1621213633.604,-67.871,-41.016,-35.645,-57.617,0.000
1621213633.608,-58.594,-39.062,-32.715,-62.988,0.000
1621213633.612,-53.711,-39.551,-35.156,-58.105,0.000
1621213633.616,-49.316,-36.621,-35.645,-53.223,0.000
1621213633.619,-45.410,-34.668,-36.133,-48.340,0.000
1621213633.623,-54.199,-42.480,-37.109,-52.734,0.000
1621213633.627,-58.594,-42.480,-28.320,-39.062,0.000
1621213633.631,-64.941,-36.621,-27.832,-48.340,0.000
1621213633.635,-57.617,-33.691,-27.344,-42.969,0.000
1621213633.639,-39.551,-32.715,-26.367,-35.156,0.000
1621213633.643,-36.621,-33.203,-33.691,-42.480,0.000
1621213633.647,-54.688,-38.574,-30.762,-52.734,0.000
1621213633.651,-52.246,-38.086,-30.273,-46.875,0.000
1621213633.655,-30.762,-29.785,-34.180,-27.344,0.000
1621213633.659,-32.715,-30.762,-30.273,-40.527,0.000
1621213633.662,-42.480,-34.180,-24.414,-43.945,0.000
1621213633.666,-38.574,-32.715,-27.832,-36.133,0.000
1621213633.670,-15.625,-30.273,-36.133,-35.156,0.000
1621213633.674,-14.648,-29.297,-38.574,-32.227,0.000
1621213633.678,-8.301,-25.391,-39.551,-42.480,0.000
1621213633.682,-19.531,-25.391,-38.574,-57.617,0.000
1621213633.686,-29.297,-22.461,-35.645,-45.410,0.000
1621213633.690,-21.973,-17.578,-34.668,-33.203,0.000
1621213633.694,-27.344,-28.809,-34.180,-37.598,0.000
1621213633.698,-37.109,-28.320,-35.645,-40.527,0.000
1621213633.701,-40.039,-23.438,-37.598,-42.480,0.000
1621213633.705,-35.645,-30.762,-38.086,-34.668,0.000
1621213633.709,-41.992,-28.320,-29.297,-27.344,0.000
1621213633.713,-44.922,-22.461,-29.297,-35.156,0.000
1621213633.717,-38.574,-24.902,-33.691,-27.832,0.000
1621213633.721,-32.227,-30.273,-28.809,-14.160,0.000
1621213633.725,-39.062,-28.320,-21.973,-20.996,0.000
1621213633.729,-48.828,-28.320,-22.949,-24.414,0.000
1621213633.733,-33.203,-29.297,-34.180,-20.996,0.000
1621213633.737,-36.621,-26.367,-35.645,-33.203,0.000
1621213633.740,-38.086,-27.832,-28.320,-34.668,0.000
1621213633.744,-31.738,-29.785,-29.785,-29.785,0.000
1621213633.748,-27.344,-25.391,-30.762,-26.855,0.000
1621213633.752,-30.762,-28.809,-33.203,-24.902,0.000
1621213633.756,-38.574,-34.668,-56.152,-25.879,0.000
1621213633.760,2.930,-16.602,-50.293,5.859,0.000
1621213633.764,-9.766,-22.461,-15.625,6.348,0.000
1621213633.768,-72.266,-37.598,-27.344,-60.059,0.000
1621213633.772,-86.426,-30.273,-37.109,-83.496,0.000
1621213633.776,-95.703,-17.578,-27.344,-89.844,0.000
1621213633.780,-109.863,-1.953,-33.691,-114.746,0.000
1621213633.784,-122.070,-7.324,-38.086,-124.023,0.000
1621213633.787,-134.277,-8.789,-38.574,-128.418,0.000
1621213633.791,-151.855,-2.441,-36.621,-137.695,0.000
1621213633.795,-187.500,1.953,-38.086,-170.898,0.000
1621213633.799,-210.938,12.695,-47.363,-185.059,0.000
1621213633.803,-221.680,20.020,-42.969,-195.312,0.000
1621213633.807,-246.582,28.809,-41.016,-237.793,0.000
1621213633.811,-256.348,27.832,-40.039,-252.930,0.000
1621213633.815,-271.973,32.715,-38.574,-270.996,0.000
1621213633.819,-296.875,36.133,-45.898,-290.039,0.000
1621213633.822,-298.340,26.367,-48.828,-285.645,0.000
1621213633.827,-308.105,35.645,-56.641,-312.012,0.000
1621213633.830,-305.664,47.363,-64.453,-325.684,0.000
1621213633.834,-300.293,49.316,-55.176,-300.293,0.000
1621213633.838,-327.148,39.551,-59.570,-294.922,0.000
1621213633.842,-331.543,25.391,-63.965,-293.457,0.000
1621213633.846,-312.500,29.785,-59.082,-291.504,0.000
1621213633.850,-301.758,38.086,-62.012,-282.227,0.000
1621213633.854,-286.133,41.992,-66.895,-263.672,0.000
1621213633.858,-251.465,34.668,-62.012,-233.887,0.000
1621213633.862,-230.957,13.184,-49.805,-216.309,0.000
1621213633.865,-222.168,17.090,-51.270,-205.566,0.000
1621213633.869,-194.824,27.832,-58.105,-175.781,0.000
1621213633.873,-165.039,10.254,-59.570,-142.090,0.000
1621213633.877,-143.066,-0.977,-54.199,-113.770,0.000
1621213633.881,-120.605,-1.465,-41.992,-97.656,0.000
1621213633.885,-100.586,-14.648,-32.227,-70.312,0.000
1621213633.889,-76.172,-32.715,-28.320,-62.988,0.000
1621213633.893,-54.688,-43.457,-33.203,-62.500,0.000
1621213633.897,-47.852,-50.781,-43.457,-44.922,0.000
1621213633.901,-24.414,-47.363,-48.340,-15.625,0.000
1621213633.905,-7.324,-48.828,-45.898,8.301,0.000
1621213633.908,-0.488,-53.223,-40.039,14.648,0.000
1621213633.912,18.555,-58.594,-35.645,6.836,0.000
1621213633.916,38.574,-66.895,-28.320,20.020,0.000
1621213633.920,49.316,-76.172,-27.344,42.969,0.000
1621213633.924,56.641,-75.195,-25.391,42.969,0.000
1621213633.928,51.270,-75.195,-22.461,51.758,0.000
1621213633.932,48.828,-83.496,-30.273,57.617,0.000
1621213633.936,53.711,-82.520,-28.320,59.570,0.000
1621213633.940,63.965,-83.984,-21.484,59.570,0.000
1621213633.944,66.406,-83.008,-21.484,64.941,0.000
1621213633.948,54.688,-76.660,-18.066,79.590,0.000
1621213633.951,47.852,-79.590,-12.207,72.266,0.000
1621213633.955,53.711,-80.566,-10.254,56.641,0.000
1621213633.959,52.734,-77.148,-12.695,51.270,0.000
1621213633.963,54.688,-84.473,-13.672,58.594,0.000
1621213633.967,47.363,-92.773,-15.625,61.035,0.000
1621213633.971,45.410,-80.078,-15.625,50.781,0.000
1621213633.975,54.199,-71.289,-13.672,49.805,0.000
1621213633.979,52.734,-75.195,-15.137,50.781,0.000
1621213633.983,50.781,-72.266,-21.484,49.805,0.000
1621213633.987,58.105,-76.172,-20.020,62.988,0.000
1621213633.990,64.453,-70.312,-20.508,57.617,0.000
1621213633.994,55.176,-63.477,-27.832,45.410,0.000
1621213633.998,46.387,-67.871,-28.809,36.133,0.000
1621213634.002,61.035,-62.500,-29.785,37.598,0.000
1621213634.006,58.594,-55.176,-24.414,49.316,0.000
1621213634.010,44.922,-55.664,-21.973,49.805,0.000
1621213634.014,63.477,-51.758,-20.508,50.293,0.000
1621213634.018,59.082,-46.387,-15.137,46.387,0.000
1621213634.022,53.711,-48.340,-19.531,49.316,0.000
1621213634.026,57.129,-45.898,-23.438,48.340,0.000
1621213634.030,41.504,-44.922,-22.461,41.992,0.000
1621213634.034,37.109,-44.434,-24.414,37.598,0.000
1621213634.037,45.898,-39.551,-22.949,35.156,0.000
1621213634.041,49.316,-43.945,-20.996,40.527,0.000
1621213634.045,38.574,-52.246,-24.414,35.645,0.000
1621213634.049,34.668,-50.781,-29.785,21.484,0.000
1621213634.053,31.250,-58.105,-26.367,15.137,0.000
1621213634.057,37.598,-58.594,-23.438,15.137,0.000
1621213634.061,39.551,-41.992,-28.809,8.301,0.000
1621213634.065,17.578,-37.598,-22.949,7.324,0.000
1621213634.069,19.531,-36.133,-14.160,16.602,0.000
1621213634.073,35.156,-36.621,-16.602,18.066,0.000
1621213634.076,19.531,-42.480,-20.996,13.672,0.000
1621213634.080,25.391,-40.039,-24.414,12.207,0.000
1621213634.084,25.879,-44.434,-17.578,14.648,0.000
1621213634.088,16.113,-44.922,-19.531,15.625,0.000
1621213634.092,22.461,-43.457,-35.156,10.254,0.000
1621213634.096,26.855,-44.434,-39.062,8.301,0.000
1621213634.100,19.531,-40.527,-36.133,13.672,0.000
1621213634.104,17.578,-36.621,-37.598,16.113,0.000
1621213634.108,29.297,-34.668,-41.016,15.625,0.000
1621213634.112,15.625,-39.551,-42.969,16.113,0.000
1621213634.116,6.836,-37.598,-38.086,11.719,0.000
1621213634.119,4.883,-39.062,-36.133,-2.930,0.000
1621213634.123,-1.953,-41.504,-35.645,-8.301,0.000
1621213634.127,-0.488,-41.992,-27.832,2.930,0.000
1621213634.131,2.930,-43.945,-28.320,-0.488,0.000
1621213634.135,3.418,-37.109,-34.668,-6.836,0.000
1621213634.139,9.766,-34.668,-31.250,2.441,0.000
1621213634.143,1.953,-31.250,-21.484,1.465,0.000
1621213634.147,-0.977,-32.715,-27.344,-8.789,0.000
1621213634.151,0.000,-38.086,-32.715,-6.836,0.000
1621213634.155,-7.324,-36.621,-33.203,-9.277,0.000
1621213634.159,-8.789,-34.180,-32.227,-13.672,0.000
1621213634.162,-7.812,-30.762,-34.668,-12.695,0.000
1621213634.166,-15.137,-36.621,-35.645,-14.648,0.000
1621213634.170,-18.066,-43.457,-32.227,-17.578,0.000
1621213634.174,-7.812,-31.738,-33.691,-13.672,0.000
1621213634.178,-1.953,-28.320,-35.156,-5.859,0.000
1621213634.182,-9.277,-30.762,-37.598,-9.766,0.000
1621213634.186,-18.555,-34.668,-36.621,-13.184,0.000
1621213634.190,-22.461,-35.156,-41.016,-17.090,0.000
1621213634.194,-17.578,-32.715,-39.551,-20.508,0.000
1621213634.197,-21.484,-40.039,-33.691,-13.184,0.000
1621213634.202,-9.766,-40.527,-34.180,-7.812,0.000
1621213634.205,-18.066,-34.180,-35.156,-10.254,0.000
1621213634.209,-31.250,-34.668,-34.180,-13.184,0.000
1621213634.213,-22.949,-31.738,-31.738,-12.207,0.000
1621213634.217,-25.879,-28.809,-29.785,-13.672,0.000
1621213634.221,-11.719,-26.855,-26.367,-10.254,0.000
1621213634.225,-3.418,-25.879,-26.855,-8.789,0.000
1621213634.229,-10.254,-30.762,-33.691,-9.277,0.000
1621213634.233,-15.625,-32.227,-35.156,1.465,0.000
1621213634.237,-20.996,-21.484,-33.691,-2.441,0.000
1621213634.240,-33.691,-20.020,-30.273,-16.602,0.000
1621213634.244,-34.180,-27.832,-31.738,-25.879,0.000
1621213634.248,-20.996,-26.855,-28.809,-24.902,0.000
1621213634.252,-4.395,-24.414,-22.949,-11.230,0.000
1621213634.256,-4.395,-23.926,-23.926,-8.789,0.000
1621213634.260,-15.137,-26.855,-25.391,-11.230,0.000
1621213634.264,-21.484,-26.367,-24.902,-5.859,0.000
1621213634.268,-12.207,-34.668,-25.879,-12.207,0.000
1621213634.272,-8.789,-41.016,-30.273,-14.160,0.000
1621213634.276,-16.113,-35.645,-28.320,-14.160,0.000
1621213634.280,-11.719,-32.227,-29.297,-17.578,0.000
1621213634.283,-23.438,-34.668,-26.855,-19.043,0.000
1621213634.287,-20.996,-38.086,-25.879,-17.578,0.000
1621213634.291,-9.277,-36.621,-36.621,-21.973,0.000
1621213634.295,-10.742,-35.645,-39.551,-27.344,0.000
1621213634.299,-15.625,-35.156,-36.133,-29.785,0.000
1621213634.303,-19.043,-34.668,-39.551,-27.832,0.000
1621213634.307,-18.555,-31.250,-32.227,-15.625,0.000
1621213634.311,-13.672,-28.809,-32.715,-20.020,0.000
1621213634.315,-23.438,-34.668,-37.598,-23.926,0.000
1621213634.319,-24.902,-37.109,-33.691,-17.578,0.000
1621213634.323,-21.484,-38.574,-29.297,-17.578,0.000
1621213634.326,-23.926,-27.832,-30.273,-13.672,0.000
1621213634.330,-15.625,-25.391,-30.273,-16.602,0.000
1621213634.334,-17.578,-27.832,-30.273,-26.855,0.000
1621213634.338,-14.648,-30.762,-32.227,-20.996,0.000
1621213634.342,-6.348,-37.598,-34.180,-19.531,0.000
1621213634.346,-3.906,-32.227,-37.109,-23.438,0.000
1621213634.350,-5.371,-30.273,-35.645,-20.508,0.000
1621213634.354,8.789,-23.438,-35.156,-1.953,0.000
1621213634.358,23.438,-21.973,-26.855,19.043,0.000
1621213634.362,-15.137,-32.715,-10.742,-20.996,0.000
1621213634.366,-42.969,-38.086,-19.531,-43.457,0.000
1621213634.369,-37.109,-42.969,-22.461,-25.391,0.000
1621213634.373,-46.387,-50.781,-17.578,-35.645,0.000
1621213634.377,-29.297,-43.945,-24.902,-42.969,0.000
1621213634.381,-21.973,-50.781,-19.043,-36.621,0.000
1621213634.385,-35.156,-58.105,-6.836,-14.648,0.000
1621213634.389,-30.273,-42.969,-12.207,-19.043,0.000
1621213634.393,-27.832,-45.410,-17.578,-27.832,0.000
1621213634.397,-25.879,-53.223,-18.066,-28.320,0.000
1621213634.401,-9.766,-47.852,-20.996,-20.996,0.000
1621213634.405,-3.906,-45.410,-19.531,-12.207,0.000
1621213634.409,-19.043,-48.828,-20.508,-4.883,0.000
1621213634.412,-24.902,-41.992,-20.996,-4.883,0.000
1621213634.416,-23.926,-34.668,-20.508,-8.301,0.000
1621213634.420,-20.020,-37.109,-22.461,-7.812,0.000
1621213634.424,-14.160,-41.504,-27.344,-18.066,0.000
1621213634.428,-23.926,-41.504,-28.320,-8.789,0.000
1621213634.432,-32.227,-41.992,-25.879,-4.395,0.000
1621213634.436,-21.973,-39.062,-26.855,-18.555,0.000
1621213634.440,-18.066,-33.203,-25.879,-12.207,0.000
1621213634.444,-22.949,-35.156,-23.926,-3.906,0.000
1621213634.448,-20.996,-36.133,-21.484,-2.441,0.000
1621213634.451,-26.855,-38.574,-25.391,-14.648,0.000
1621213634.455,-23.438,-43.945,-27.832,-16.602,0.000
1621213634.459,-20.508,-45.898,-23.926,-18.555,0.000
1621213634.463,-22.461,-42.480,-25.879,-23.926,0.000
1621213634.467,-20.020,-40.527,-27.344,-15.137,0.000
1621213634.471,-20.508,-41.504,-28.320,-1.953,0.000
1621213634.475,-14.160,-43.457,-31.738,-3.418,0.000
1621213634.479,-23.438,-44.922,-41.016,-22.949,0.000
1621213634.483,-30.273,-41.016,-44.922,-17.578,0.000
1621213634.487,-27.344,-40.039,-41.504,-18.066,0.000
1621213634.491,-32.227,-40.527,-46.875,-34.668,0.000
1621213634.494,-39.062,-33.691,-41.992,-31.250,0.000
1621213634.498,-23.926,-27.344,-32.227,-16.113,0.000
1621213634.502,-25.391,-32.715,-27.832,-12.695,0.000
1621213634.506,-32.715,-33.691,-22.461,-20.508,0.000
1621213634.510,-25.879,-28.809,-29.785,-21.484,0.000
1621213634.514,-26.855,-33.203,-35.645,-19.531,0.000
1621213634.518,-35.156,-41.992,-30.762,-24.414,0.000
1621213634.522,-40.039,-39.062,-28.320,-32.227,0.000
1621213634.526,-29.785,-39.551,-32.227,-30.762,0.000
1621213634.530,-31.250,-38.086,-37.598,-25.391,0.000
1621213634.534,-32.227,-32.227,-36.621,-31.250,0.000
1621213634.537,-30.762,-30.762,-31.250,-26.367,0.000
1621213634.541,-20.020,-23.926,-27.832,-19.531,0.000
1621213634.545,-20.508,-23.926,-26.367,-23.438,0.000
1621213634.549,-16.602,-29.785,-22.949,-15.625,0.000
1621213634.553,-3.418,-31.250,-25.391,-14.160,0.000
1621213634.557,-23.926,-34.668,-31.250,-11.230,0.000
1621213634.561,-29.297,-39.062,-31.250,-3.906,0.000
1621213634.565,-32.715,-35.156,-32.227,-13.184,0.000
1621213634.569,-29.785,-31.250,-34.180,-25.391,0.000
1621213634.572,-26.855,-31.250,-36.621,-29.297,0.000
1621213634.577,-38.086,-34.668,-35.645,-32.227,0.000
1621213634.580,-32.227,-30.762,-35.645,-25.879,0.000
1621213634.584,-29.785,-31.738,-37.598,-21.484,0.000
1621213634.588,-20.996,-34.180,-38.574,-24.902,0.000
1621213634.592,-21.484,-31.250,-45.410,-27.344,0.000
1621213634.596,-30.762,-34.180,-48.828,-31.250,0.000
1621213634.600,-21.484,-37.598,-47.852,-29.785,0.000
1621213634.604,-17.090,-35.156,-35.645,-14.648,0.000
1621213634.608,-25.391,-38.574,-31.250,-16.113,0.000
1621213634.612,-32.715,-37.598,-37.109,-34.180,0.000
1621213634.615,-23.926,-35.645,-34.180,-37.598,0.000
1621213634.619,-15.625,-43.945,-26.855,-21.484,0.000
1621213634.623,-24.902,-37.598,-26.855,-14.648,0.000
1621213634.627,-21.484,-31.250,-31.250,-25.391,0.000
1621213634.631,-9.277,-31.738,-31.738,-31.738,0.000
1621213634.635,-19.043,-27.344,-33.691,-27.344,0.000
1621213634.639,-36.621,-30.762,-36.133,-28.809,0.000
1621213634.643,-33.691,-35.156,-31.250,-28.320,0.000
1621213634.647,-27.832,-37.109,-31.250,-28.809,0.000
1621213634.651,-26.855,-43.457,-33.691,-27.832,0.000
1621213634.655,-32.715,-41.016,-27.344,-21.484,0.000
1621213634.659,-22.461,-40.039,-23.926,-15.137,0.000
1621213634.662,0.488,-50.781,-22.949,9.766,0.000
1621213634.666,-12.695,-40.527,-29.785,-1.465,0.000
1621213634.670,-41.504,-24.902,-40.527,-48.828,0.000
1621213634.674,-57.617,-28.320,-44.434,-68.359,0.000
1621213634.678,-59.082,-31.738,-46.387,-60.547,0.000
1621213634.682,-55.176,-28.320,-52.246,-56.641,0.000
1621213634.686,-47.363,-23.438,-56.641,-52.734,0.000
1621213634.690,-51.270,-23.926,-57.129,-49.805,0.000
1621213634.694,-48.828,-20.996,-62.988,-53.223,0.000
1621213634.698,-44.434,-20.020,-63.965,-44.922,0.000
1621213634.702,-35.645,-21.484,-58.594,-39.062,0.000
1621213634.705,-31.250,-25.391,-50.781,-25.391,0.000
1621213634.709,-39.551,-30.762,-53.711,-31.250,0.000
1621213634.713,-23.438,-24.414,-55.176,-38.574,0.000
1621213634.717,-21.484,-17.578,-51.270,-22.461,0.000
1621213634.721,-22.461,-16.113,-52.734,-29.297,0.000
1621213634.725,-15.625,-17.090,-50.781,-39.551,0.000
1621213634.729,-20.020,-15.625,-48.828,-36.621,0.000
1621213634.733,-17.090,-17.578,-48.340,-36.621,0.000
1621213634.737,0.488,-19.043,-43.945,-26.367,0.000
1621213634.741,5.859,-19.043,-41.992,-18.066,0.000
1621213634.744,-7.324,-24.902,-39.551,-28.320,0.000
1621213634.748,-13.184,-23.926,-40.527,-35.645,0.000
1621213634.752,-15.625,-27.344,-44.434,-24.414,0.000
1621213634.756,-15.137,-30.273,-44.922,-20.508,0.000
1621213634.760,-12.695,-22.461,-40.039,-23.926,0.000
1621213634.764,-14.160,-13.184,-40.039,-19.531,0.000
1621213634.768,-14.648,-10.254,-38.086,-15.137,0.000
1621213634.772,-8.301,-19.531,-38.086,-13.672,0.000
1621213634.776,-1.465,-20.508,-46.387,-12.207,0.000
1621213634.780,-7.324,-20.020,-40.039,-11.230,0.000
1621213634.784,2.441,-25.391,-32.715,-18.066,0.000
1621213634.788,-2.441,-28.809,-34.668,-10.254,0.000
1621213634.791,-22.949,-35.156,-31.738,-10.742,0.000
1621213634.795,-26.367,-34.180,-31.738,-19.043,0.000
1621213634.799,-27.832,-33.203,-33.203,-17.090,0.000
1621213634.803,-27.344,-33.691,-35.645,-27.344,0.000
1621213634.807,-23.438,-31.250,-37.109,-20.020,0.000
1621213634.811,-22.461,-27.344,-38.086,-28.320,0.000
1621213634.815,-30.273,-28.809,-38.574,-34.668,0.000
1621213634.819,-22.461,-28.809,-36.133,-18.555,0.000
1621213634.823,-20.996,-29.785,-35.156,-28.320,0.000
1621213634.827,-34.180,-36.621,-36.621,-36.621,0.000
1621213634.830,-39.062,-39.551,-38.574,-35.156,0.000
1621213634.834,-27.832,-39.551,-39.062,-25.879,0.000
1621213634.838,-28.809,-40.039,-37.598,-22.461,0.000
1621213634.842,-28.809,-31.738,-40.527,-40.527,0.000
1621213634.846,-22.461,-23.926,-39.551,-33.691,0.000
1621213634.850,-37.109,-31.738,-38.086,-28.320,0.000
1621213634.854,-34.668,-35.645,-34.180,-28.320,0.000
1621213634.858,-29.297,-33.691,-34.180,-23.926,0.000
1621213634.862,-35.645,-38.086,-39.062,-33.203,0.000
1621213634.866,-23.926,-39.062,-40.527,-39.551,0.000
1621213634.870,-20.020,-36.621,-40.527,-30.273,0.000
1621213634.873,-22.461,-36.133,-45.898,-33.691,0.000
1621213634.877,-16.113,-37.109,-44.434,-26.367,0.000
1621213634.881,-28.809,-31.738,-40.039,-15.137,0.000
1621213634.885,-33.203,-26.855,-36.133,-22.949,0.000
1621213634.889,-18.066,-29.297,-28.809,-24.902,0.000
1621213634.893,-10.254,-31.738,-25.879,-15.625,0.000
1621213634.897,-26.855,-28.320,-27.344,-24.414,0.000
1621213634.901,-18.555,-30.273,-27.832,-31.738,0.000
1621213634.905,-14.648,-36.621,-32.715,-26.367,0.000
1621213634.909,-26.855,-41.992,-37.598,-27.832,0.000
1621213634.913,-32.715,-36.133,-34.668,-34.668,0.000
1621213634.916,-32.227,-24.902,-29.785,-31.738,0.000
1621213634.920,-33.203,-29.297,-30.762,-28.809,0.000
1621213634.924,-44.922,-35.645,-31.250,-36.621,0.000
1621213634.928,-44.434,-38.574,-27.832,-31.738,0.000
1621213634.932,-28.320,-37.598,-31.250,-27.344,0.000
1621213634.936,-27.832,-31.250,-31.250,-30.762,0.000
1621213634.940,-41.016,-34.180,-27.344,-32.715,0.000
1621213634.944,-29.785,-36.621,-28.320,-27.344,0.000
1621213634.948,-16.113,-34.668,-30.273,-24.902,0.000
1621213634.952,-30.273,-37.109,-33.203,-32.715,0.000
1621213634.956,-33.691,-38.086,-35.645,-20.508,0.000
1621213634.959,-27.344,-35.156,-36.133,-24.902,0.000
1621213634.963,-5.371,-24.414,-46.875,-20.020,0.000
1621213634.967,20.020,-26.367,-44.434,9.277,0.000
1621213634.971,-11.719,-36.621,-18.555,3.418,0.000
1621213634.975,-44.434,-31.250,-16.113,-28.809,0.000
1621213634.979,-32.715,-34.668,-19.043,-28.320,0.000
1621213634.983,-31.738,-44.922,-16.113,-25.879,0.000
1621213634.987,-39.551,-45.898,-12.207,-26.367,0.000
1621213634.991,-48.828,-48.828,-4.395,-19.531,0.000
1621213634.994,-42.480,-58.105,-1.953,-22.949,0.000
1621213634.999,-42.969,-56.641,-0.488,-22.949,0.000
1621213635.002,-38.086,-53.223,3.906,-22.461,0.000
1621213635.006,-29.785,-54.688,0.977,-16.113,0.000
1621213635.010,-28.320,-55.176,-9.766,-12.207,0.000
1621213635.014,-28.809,-47.852,-12.695,-29.785,0.000
1621213635.018,-34.180,-49.805,-11.230,-27.344,0.000
1621213635.022,-26.855,-53.711,-12.207,-6.348,0.000
1621213635.026,-27.344,-51.270,-13.184,-2.930,0.000
1621213635.030,-32.227,-47.852,-11.230,1.953,0.000
1621213635.034,-28.809,-45.410,-7.324,0.000,0.000
1621213635.037,-23.438,-47.363,-8.789,-3.418,0.000
1621213635.041,-34.180,-51.758,-11.719,-5.371,0.000
1621213635.045,-35.156,-50.293,-6.836,-18.066,0.000
1621213635.049,-20.996,-44.922,0.977,-20.996,0.000
1621213635.053,-22.949,-43.457,1.465,-6.836,0.000
1621213635.057,-27.832,-40.527,-2.930,0.977,0.000
1621213635.061,-23.438,-35.156,-6.348,-8.789,0.000
1621213635.065,-17.578,-36.621,-10.254,-8.301,0.000
1621213635.069,-25.391,-45.898,-15.625,-6.836,0.000
1621213635.073,-28.320,-39.062,-13.184,-6.348,0.000
1621213635.077,-11.719,-34.668,-10.742,0.000,0.000
1621213635.080,-10.742,-38.574,-15.137,-4.883,0.000
1621213635.084,-4.883,-32.715,-18.066,-15.137,0.000
1621213635.088,-6.836,-32.715,-14.160,-7.812,0.000
1621213635.092,-23.926,-37.598,-15.625,0.000,0.000
1621213635.096,-22.949,-39.062,-18.555,-8.301,0.000
1621213635.100,-15.137,-41.016,-17.578,-9.277,0.000
1621213635.104,-25.879,-43.457,-18.066,-11.719,0.000
1621213635.108,-27.832,-41.504,-13.184,-11.230,0.000
1621213635.112,-21.484,-37.109,-11.230,-12.207,0.000
1621213635.116,-15.625,-33.203,-13.672,-18.066,0.000
1621213635.120,-10.742,-34.180,-16.602,-15.625,0.000
1621213635.123,-10.254,-36.621,-18.066,-16.602,0.000
1621213635.127,-8.301,-28.809,-22.461,-17.090,0.000
1621213635.131,-0.488,-32.715,-23.926,-22.949,0.000
1621213635.135,-6.348,-40.527,-26.855,-25.391,0.000
1621213635.139,-17.578,-27.832,-28.809,-17.578,0.000
1621213635.143,-9.277,-24.902,-29.785,-15.625,0.000
1621213635.147,-14.160,-31.250,-32.715,-26.367,0.000
1621213635.151,-23.926,-28.809,-30.762,-16.602,0.000
1621213635.155,-17.578,-26.855,-30.762,-12.207,0.000
1621213635.159,-14.648,-28.320,-31.250,-15.137,0.000
1621213635.163,-30.273,-35.645,-29.297,-2.441,0.000
1621213635.166,-31.250,-41.992,-27.832,-8.301,0.000
1621213635.170,-23.438,-41.504,-31.250,-20.020,0.000
1621213635.174,-22.949,-42.969,-34.180,-26.855,0.000
1621213635.178,-19.531,-41.504,-35.645,-20.508,0.000
1621213635.182,-27.344,-39.551,-35.156,-14.160,0.000
1621213635.186,-33.691,-44.434,-33.691,-21.484,0.000
1621213635.190,-25.879,-46.387,-32.715,-21.973,0.000
1621213635.194,-31.738,-45.898,-32.715,-21.484,0.000
1621213635.198,-38.086,-49.805,-30.273,-27.344,0.000
1621213635.202,-26.855,-41.504,-30.273,-30.762,0.000
1621213635.205,-13.184,-25.391,-33.691,-7.812,0.000
1621213635.209,-22.949,-30.762,-24.902,-2.441,0.000
1621213635.213,-37.109,-39.062,-19.043,-24.902,0.000
1621213635.217,-39.551,-37.598,-19.531,-38.574,0.000
1621213635.221,-38.574,-38.086,-25.879,-20.996,0.000
1621213635.225,-28.809,-39.551,-28.320,-2.930,0.000
1621213635.229,-30.762,-40.039,-11.719,-9.766,0.000
1621213635.233,-35.156,-39.551,-4.883,-20.508,0.000
1621213635.237,-30.762,-36.133,-12.695,-28.320,0.000
1621213635.241,-17.578,-37.109,-16.602,-23.438,0.000
1621213635.245,-18.555,-42.969,-12.207,-11.719,0.000
1621213635.248,-18.066,-35.645,-13.672,-13.184,0.000
1621213635.252,-8.789,-29.785,-19.043,-20.508,0.000
1621213635.256,-15.625,-30.273,-19.043,-7.812,0.000
1621213635.260,-19.043,-33.691,-18.066,-3.418,0.000
1621213635.264,-9.766,-36.133,-20.996,-21.973,0.000
1621213635.268,-18.066,-27.344,-31.250,-16.602,0.000
1621213635.272,-28.809,-25.879,-35.156,-3.418,0.000
1621213635.276,-16.602,-30.762,-26.367,-7.812,0.000
1621213635.280,-13.672,-33.203,-27.832,-14.160,0.000
1621213635.284,-6.836,-37.598,-24.414,-12.207,0.000
1621213635.288,-14.160,-37.598,-15.625,-12.695,0.000
1621213635.291,-18.555,-39.062,-24.902,-17.090,0.000
1621213635.295,-14.160,-41.504,-30.762,-16.602,0.000
1621213635.299,-22.461,-41.016,-24.902,-24.414,0.000
1621213635.303,-22.949,-39.551,-28.320,-27.832,0.000
1621213635.307,-20.508,-33.203,-33.203,-11.719,0.000
1621213635.311,-23.926,-36.133,-30.273,-8.301,0.000
1621213635.315,-16.113,-35.645,-29.785,-19.043,0.000
1621213635.319,-13.184,-30.273,-29.785,-21.973,0.000
1621213635.323,-24.414,-33.691,-29.785,-19.531,0.000
1621213635.327,-15.137,-31.738,-23.926,-19.043,0.000
1621213635.331,-24.414,-34.180,-22.949,-22.949,0.000
1621213635.334,-31.738,-39.062,-32.715,-32.715,0.000
1621213635.338,-29.297,-42.480,-35.645,-24.414,0.000
1621213635.342,-24.414,-43.457,-25.391,-11.719,0.000
1621213635.346,-27.344,-35.645,-27.832,-22.461,0.000
1621213635.350,-31.738,-33.203,-37.109,-34.180,0.000
1621213635.354,-26.855,-31.738,-25.391,-34.180,0.000
1621213635.358,-38.574,-35.156,-33.203,-36.133,0.000
1621213635.362,-43.457,-30.273,-43.457,-35.645,0.000
1621213635.366,-44.922,-22.949,-5.371,-49.805,0.000
1621213635.369,-42.969,-18.555,37.598,-39.551,0.000
1621213635.374,-23.438,2.930,-2.441,-24.414,0.000
1621213635.378,-42.480,-27.832,-82.031,-57.129,0.000
1621213635.381,-52.246,-66.406,-73.242,-54.688,0.000
1621213635.385,4.395,-30.762,-22.949,6.836,0.000
1621213635.389,17.578,-14.160,-16.602,22.461,0.000
1621213635.393,-33.203,-47.363,-31.738,-20.996,0.000
1621213635.397,-55.664,-64.941,-25.879,-40.039,0.000
1621213635.401,-40.527,-33.203,-14.648,-23.438,0.000
1621213635.405,-29.785,-17.090,-19.043,-31.738,0.000
1621213635.409,-66.895,-59.082,-34.180,-55.664,0.000
1621213635.413,-79.590,-67.383,-11.719,-69.336,0.000
1621213635.416,-22.461,-0.488,72.266,-25.391,0.000
1621213635.421,3.418,42.969,122.070,4.883,0.000
1621213635.424,-23.926,25.879,116.211,-17.578,0.000
1621213635.428,-28.809,38.086,170.410,-21.973,0.000
1621213635.432,-42.969,58.105,264.160,-42.969,0.000
1621213635.436,-80.078,38.086,316.895,-84.473,0.000
1621213635.440,-45.898,89.355,428.223,-23.926,0.000
1621213635.444,-10.742,131.348,521.484,12.207,0.000
1621213635.448,-37.598,83.984,576.172,-36.133,0.000
1621213635.452,-51.758,84.961,698.730,-39.551,0.000
1621213635.456,-69.336,113.770,830.078,-40.039,0.000
1621213635.459,-69.824,131.836,922.363,-46.387,0.000
1621213635.463,-49.805,146.973,964.844,-46.875,0.000
1621213635.467,-60.547,156.250,967.285,-54.199,0.000
1621213635.471,-67.383,162.109,967.285,-55.176,0.000
1621213635.475,-47.852,169.434,968.262,-45.898,0.000
1621213635.479,-47.852,172.852,967.773,-44.434,0.000
1621213635.483,-47.363,175.781,967.773,-41.992,0.000
1621213635.487,-50.293,179.688,967.773,-42.480,0.000
1621213635.491,-42.480,171.875,968.262,-45.410,0.000
1621213635.495,-35.156,166.504,967.773,-29.785,0.000
1621213635.499,-49.805,155.762,968.262,-28.320,0.000
1621213635.502,-42.969,139.160,965.820,-41.992,0.000
1621213635.506,-40.039,127.930,969.727,-43.945,0.000
1621213635.510,-47.852,121.094,953.125,-45.410,0.000
1621213635.514,-44.434,113.770,882.324,-48.828,0.000
1621213635.518,-44.434,97.656,810.059,-48.340,0.000
1621213635.522,-52.734,88.379,758.301,-40.527,0.000
1621213635.526,-50.293,83.496,699.707,-38.574,0.000
1621213635.530,-34.180,66.895,629.395,-45.410,0.000
1621213635.534,-20.020,49.805,566.406,-41.504,0.000
1621213635.538,-22.949,41.504,507.812,-30.762,0.000
1621213635.542,-24.414,30.762,446.289,-27.832,0.000
1621213635.545,-23.926,22.949,397.461,-25.391,0.000
1621213635.549,-32.715,17.090,342.773,-27.344,0.000
1621213635.553,-19.043,10.742,288.086,-30.762,0.000
1621213635.557,6.836,4.883,245.117,-18.555,0.000
1621213635.561,9.766,-7.324,209.961,-0.488,0.000
1621213635.565,3.418,-10.742,170.898,-11.230,0.000
1621213635.569,-16.113,-5.371,125.000,-40.527,0.000
1621213635.573,-20.996,-4.883,91.309,-44.922,0.000
1621213635.577,-6.348,-12.695,56.152,-35.645,0.000
1621213635.581,-15.137,-22.461,14.160,-32.715,0.000
1621213635.585,-18.555,-25.879,-20.508,-41.016,0.000
1621213635.588,-24.902,-28.809,-48.340,-43.945,0.000
1621213635.592,-10.742,-31.738,-66.895,-40.527,0.000
1621213635.596,-2.930,-30.273,-80.566,-39.062,0.000
1621213635.600,1.953,-25.391,-100.586,-36.133,0.000
1621213635.604,11.719,-28.809,-114.746,-29.785,0.000
1621213635.608,0.000,-38.086,-126.953,-22.949,0.000
1621213635.612,1.465,-46.875,-140.137,-16.113,0.000
1621213635.616,10.254,-49.805,-147.461,-21.484,0.000
1621213635.620,4.883,-51.270,-156.738,-20.996,0.000
1621213635.624,-2.930,-54.199,-160.645,-15.137,0.000
1621213635.627,12.695,-51.758,-162.109,-13.672,0.000
1621213635.631,21.484,-50.293,-163.574,-17.090,0.000
1621213635.635,19.531,-53.223,-161.621,-8.301,0.000
1621213635.639,29.785,-49.805,-164.062,3.906,0.000
1621213635.643,31.250,-49.316,-166.016,-3.906,0.000
1621213635.647,19.043,-53.223,-165.039,0.977,0.000
1621213635.651,4.883,-54.199,-162.598,0.977,0.000
1621213635.655,8.789,-54.199,-158.691,-2.441,0.000
1621213635.659,9.766,-60.547,-156.250,-8.789,0.000
1621213635.663,10.742,-62.988,-160.156,-16.113,0.000
1621213635.667,7.812,-63.965,-160.156,-10.742,0.000
1621213635.670,2.441,-62.500,-157.227,-8.789,0.000
1621213635.674,0.488,-62.500,-157.227,-15.137,0.000
1621213635.678,-3.906,-65.918,-161.133,-11.719,0.000
1621213635.682,-6.836,-58.594,-163.574,-5.859,0.000
1621213635.686,-3.418,-59.082,-157.227,-8.789,0.000
1621213635.690,6.348,-64.453,-151.367,-11.230,0.000
1621213635.694,13.184,-62.988,-150.879,-7.324,0.000
1621213635.698,6.836,-65.430,-152.344,-2.930,0.000
1621213635.702,-17.578,-60.547,-145.020,-5.859,0.000
1621213635.706,-6.836,-53.711,-142.090,-6.836,0.000
1621213635.710,-7.812,-59.082,-138.672,-0.977,0.000
1621213635.713,-11.230,-61.523,-141.602,-14.648,0.000
1621213635.717,-3.906,-64.453,-145.508,-13.184,0.000
1621213635.721,-14.648,-68.359,-142.578,-13.184,0.000
1621213635.725,-12.207,-68.848,-143.066,-13.672,0.000
1621213635.729,0.488,-70.801,-142.578,-9.766,0.000
1621213635.733,20.020,-66.895,-145.996,4.883,0.000
1621213635.737,11.719,-61.035,-147.949,5.859,0.000
1621213635.741,-6.836,-59.082,-148.438,-30.762,0.000
1621213635.745,-16.602,-56.152,-144.531,-39.062,0.000
1621213635.749,-19.531,-52.246,-142.578,-28.809,0.000
1621213635.753,-17.090,-52.246,-145.996,-27.832,0.000
1621213635.756,-21.484,-46.387,-144.531,-18.555,0.000
1621213635.760,-11.230,-38.086,-145.508,-6.348,0.000
1621213635.764,4.883,-34.180,-153.320,-23.438,0.000
1621213635.768,-0.488,-31.250,-156.738,-28.320,0.000
1621213635.772,-2.930,-31.738,-162.109,-25.879,0.000
1621213635.776,10.254,-30.273,-164.062,-28.320,0.000
1621213635.780,7.324,-26.367,-162.598,-33.691,0.000
1621213635.784,-5.371,-15.137,-165.527,-41.016,0.000
1621213635.788,8.301,-9.766,-164.062,-21.973,0.000
1621213635.792,24.414,-23.926,-158.203,-8.789,0.000
1621213635.796,22.461,-28.320,-153.809,-11.230,0.000
1621213635.799,20.508,-25.879,-150.879,-11.230,0.000
1621213635.803,15.625,-28.320,-145.020,-7.324,0.000
1621213635.807,6.836,-30.273,-140.625,-9.766,0.000
1621213635.811,14.160,-34.180,-140.137,-11.719,0.000
1621213635.815,13.672,-34.668,-136.230,-16.113,0.000
1621213635.819,9.277,-24.902,-132.324,-17.090,0.000
1621213635.823,13.672,-23.438,-134.277,-13.672,0.000
1621213635.827,10.254,-32.715,-134.766,-12.695,0.000
1621213635.831,0.977,-39.551,-131.836,-15.625,0.000
1621213635.835,2.930,-40.039,-129.883,-23.926,0.000
1621213635.838,10.742,-36.133,-122.070,-16.113,0.000
1621213635.842,2.441,-38.574,-119.141,-10.742,0.000
1621213635.846,-4.883,-39.551,-117.188,-26.855,0.000
1621213635.850,-2.930,-35.156,-110.840,-29.785,0.000
1621213635.854,-1.953,-42.969,-111.816,-16.602,0.000
1621213635.858,-10.742,-45.898,-112.793,-11.230,0.000
1621213635.862,-13.672,-49.805,-110.352,-16.113,0.000
1621213635.866,-4.883,-49.805,-111.816,-19.531,0.000
1621213635.870,-2.930,-35.645,-108.887,-13.672,0.000
1621213635.874,2.441,-32.227,-104.492,-9.277,0.000
1621213635.877,4.883,-34.668,-104.004,-7.812,0.000
1621213635.881,-2.930,-29.785,-103.027,-9.277,0.000
1621213635.885,-8.301,-31.250,-99.121,-13.184,0.000
1621213635.889,-8.789,-34.668,-92.285,-17.578,0.000
1621213635.893,-11.230,-33.203,-91.309,-20.508,0.000
1621213635.897,-12.695,-37.598,-99.609,-30.762,0.000
1621213635.901,-12.695,-46.387,-99.121,-26.855,0.000
1621213635.905,-26.367,-47.363,-96.191,-20.508,0.000
1621213635.909,-23.926,-43.457,-100.098,-27.344,0.000
1621213635.913,-18.555,-42.969,-98.145,-39.551,0.000
1621213635.917,-28.809,-47.852,-96.191,-46.387,0.000
1621213635.920,-28.320,-46.387,-99.121,-28.320,0.000
1621213635.924,-9.277,-45.410,-98.145,-15.625,0.000
1621213635.928,-0.488,-47.852,-86.914,-15.137,0.000
1621213635.932,-9.766,-41.016,-81.055,-16.602,0.000
1621213635.936,2.441,-30.273,-80.566,-10.742,0.000
1621213635.940,11.719,-30.762,-78.125,-2.441,0.000
1621213635.944,-3.906,-44.434,-78.125,-14.648,0.000
1621213635.948,3.906,-42.969,-82.031,-14.648,0.000
1621213635.952,11.230,-33.691,-81.055,-7.812,0.000
1621213635.956,4.395,-31.738,-78.125,-9.766,0.000
1621213635.959,3.418,-38.574,-79.590,-0.977,0.000
1621213635.963,-1.953,-41.992,-76.660,-7.324,0.000
1621213635.967,-12.695,-38.086,-72.266,-17.578,0.000
1621213635.971,-16.602,-42.969,-67.871,-20.020,0.000
1621213635.975,-10.254,-48.340,-70.801,-23.438,0.000
1621213635.979,-13.672,-49.316,-73.242,-26.855,0.000
1621213635.983,-28.809,-47.852,-73.730,-37.109,0.000
1621213635.987,-25.879,-40.039,-75.195,-32.227,0.000
1621213635.991,-12.695,-39.551,-67.871,-28.809,0.000
1621213635.995,-12.695,-37.109,-70.801,-29.297,0.000
1621213635.999,-29.785,-35.645,-80.078,-26.855,0.000
1621213636.002,-31.250,-40.039,-76.172,-28.809,0.000
1621213636.006,-17.578,-38.086,-73.242,-28.809,0.000
1621213636.010,-16.113,-41.504,-71.289,-30.273,0.000
1621213636.014,-19.043,-36.133,-65.918,-36.133,0.000
1621213636.018,-19.531,-31.738,-62.012,-31.738,0.000
1621213636.022,-23.438,-36.133,-64.453,-32.227,0.000
1621213636.026,-27.344,-42.969,-70.801,-40.527,0.000
1621213636.030,-20.020,-42.480,-66.406,-32.227,0.000
1621213636.034,-5.859,-35.645,-67.871,-27.832,0.000
1621213636.038,-21.484,-40.527,-73.242,-28.809,0.000
1621213636.042,-19.531,-46.387,-65.430,-24.414,0.000
1621213636.045,1.465,-39.062,-61.035,-25.879,0.000
1621213636.049,-3.906,-44.922,-61.035,-20.508,0.000
1621213636.053,-13.672,-48.340,-67.383,-16.113,0.000
1621213636.057,-28.320,-40.039,-64.941,-9.766,0.000
1621213636.061,-27.344,-48.340,-61.523,-11.230,0.000
1621213636.065,-25.879,-53.711,-61.035,-16.602,0.000
1621213636.069,-21.484,-44.434,-60.059,-20.996,0.000
1621213636.073,-20.508,-45.410,-65.430,-30.273,0.000
1621213636.077,-34.180,-53.223,-73.730,-19.043,0.000
1621213636.081,-31.738,-51.758,-72.266,-17.578,0.000
1621213636.085,-36.133,-45.898,-68.359,-31.738,0.000
1621213636.088,-26.855,-49.316,-71.289,-34.180,0.000
1621213636.092,-5.859,-56.641,-65.430,-29.297,0.000
1621213636.096,-31.250,-52.246,-63.477,-34.668,0.000
1621213636.100,-32.227,-39.551,-70.312,-34.668,0.000
1621213636.104,-11.230,-29.785,-73.242,-29.297,0.000
1621213636.108,-13.672,-27.344,-72.754,-37.109,0.000
1621213636.112,-16.602,-32.227,-72.266,-28.320,0.000
1621213636.116,-14.160,-32.715,-70.801,-25.879,0.000
1621213636.120,-24.902,-29.297,-69.336,-28.320,0.000
1621213636.124,-19.043,-32.715,-67.871,-22.949,0.000
1621213636.128,-22.949,-36.133,-65.430,-26.367,0.000
1621213636.131,-27.344,-40.527,-63.965,-27.344,0.000
1621213636.135,-21.973,-46.387,-63.965,-24.414,0.000
1621213636.139,-29.297,-48.828,-60.547,-20.996,0.000
1621213636.143,-35.645,-47.363,-61.035,-29.785,0.000
1621213636.147,-41.504,-49.316,-67.383,-31.250,0.000
1621213636.151,-37.109,-43.945,-64.453,-32.715,0.000
1621213636.155,-25.879,-41.504,-58.594,-31.250,0.000
1621213636.159,-26.855,-41.016,-60.059,-29.785,0.000
1621213636.163,-28.809,-34.180,-58.105,-38.086,0.000
1621213636.166,-31.250,-38.086,-56.641,-32.715,0.000
1621213636.171,-27.344,-41.504,-60.547,-20.020,0.000
1621213636.174,-14.648,-39.551,-60.547,-20.996,0.000
1621213636.178,-11.230,-44.434,-62.500,-31.250,0.000
1621213636.182,-14.648,-41.992,-65.430,-30.762,0.000
1621213636.186,-21.484,-40.527,-66.406,-25.879,0.000
1621213636.190,-20.996,-44.434,-67.383,-28.320,0.000
1621213636.194,-12.207,-34.180,-67.871,-23.926,0.000
1621213636.198,-14.648,-27.832,-62.500,-22.461,0.000
1621213636.202,-16.113,-36.621,-61.523,-24.902,0.000
1621213636.206,-10.742,-39.551,-59.570,-20.020,0.000
1621213636.209,-15.137,-33.203,-62.988,-24.902,0.000
1621213636.213,-4.883,-36.133,-77.637,-23.438,0.000
1621213636.217,7.812,-40.527,-68.848,-1.465,0.000
1621213636.221,-30.762,-48.828,-41.504,-11.230,0.000
1621213636.225,-57.617,-58.105,-49.805,-44.434,0.000
1621213636.229,-50.781,-53.223,-59.570,-46.387,0.000
1621213636.233,-59.082,-51.270,-48.340,-49.805,0.000
1621213636.237,-55.176,-58.594,-44.434,-58.594,0.000
1621213636.241,-65.430,-60.547,-46.387,-51.270,0.000
1621213636.245,-77.148,-63.965,-47.852,-58.594,0.000
1621213636.249,-60.059,-63.477,-56.641,-59.082,0.000
1621213636.252,-47.363,-53.711,-62.988,-41.992,0.000
1621213636.256,-57.129,-49.805,-55.664,-40.039,0.000
1621213636.260,-56.152,-55.664,-49.316,-39.551,0.000
1621213636.264,-45.410,-50.781,-55.176,-37.109,0.000
1621213636.268,-48.340,-51.758,-57.129,-40.039,0.000
1621213636.272,-49.316,-65.430,-54.688,-17.578,0.000
1621213636.276,-49.805,-63.477,-57.617,-17.090,0.000
1621213636.280,-40.527,-52.734,-49.316,-25.879,0.000
1621213636.284,-38.086,-49.805,-50.781,-20.996,0.000
1621213636.288,-33.691,-60.547,-52.734,-20.020,0.000
1621213636.291,-22.949,-55.176,-47.852,-15.625,0.000
1621213636.295,-28.320,-48.340,-47.363,-20.508,0.000
1621213636.299,-24.902,-41.992,-49.316,-20.996,0.000
1621213636.303,-22.949,-47.852,-42.480,-5.371,0.000
1621213636.307,-33.203,-60.547,-38.086,8.301,0.000
1621213636.311,-37.109,-58.105,-38.574,6.836,0.000
1621213636.315,-23.438,-52.246,-35.645,1.953,0.000
1621213636.319,-15.137,-40.527,-40.039,-0.977,0.000
1621213636.323,-18.555,-33.203,-48.340,-11.230,0.000
1621213636.327,-16.113,-36.133,-46.387,-12.207,0.000
1621213636.331,-12.695,-34.668,-49.805,-7.324,0.000
1621213636.334,-15.137,-37.598,-53.223,-25.879,0.000
1621213636.338,-22.949,-41.992,-51.270,-36.621,0.000
1621213636.342,-10.254,-31.738,-65.430,-25.391,0.000
1621213636.346,12.695,-24.414,-66.895,-20.020,0.000
1621213636.350,-6.836,-41.016,-41.504,-32.715,0.000
1621213636.354,-43.457,-52.734,-36.133,-43.457,0.000
1621213636.358,-56.152,-40.527,-40.527,-41.016,0.000
1621213636.362,-70.801,-41.992,-41.504,-67.383,0.000
1621213636.366,-89.844,-50.781,-45.898,-85.449,0.000
1621213636.370,-104.004,-53.711,-45.410,-85.449,0.000
1621213636.373,-123.047,-61.523,-54.199,-104.980,0.000
1621213636.377,-106.934,-56.152,-55.176,-93.750,0.000
1621213636.381,-111.328,-60.059,-41.016,-85.938,0.000
1621213636.385,-126.953,-58.105,-43.945,-100.098,0.000
1621213636.389,-106.445,-47.852,-51.270,-91.797,0.000
1621213636.393,-89.355,-54.688,-48.828,-77.637,0.000
1621213636.397,-72.266,-51.270,-43.457,-62.500,0.000
1621213636.401,-64.453,-48.340,-38.086,-47.852,0.000
1621213636.405,-77.148,-50.293,-35.156,-53.711,0.000
1621213636.409,-65.918,-50.781,-38.086,-46.875,0.000
1621213636.413,-52.246,-51.758,-38.574,-44.922,0.000
1621213636.416,-44.434,-44.922,-27.832,-45.898,0.000
1621213636.420,-45.898,-41.992,-37.598,-47.852,0.000
1621213636.424,-75.684,-47.363,-39.551,-38.574,0.000
1621213636.428,-51.270,-48.828,-32.227,-25.391,0.000
1621213636.432,-31.250,-46.875,-40.039,-46.387,0.000
1621213636.436,-52.246,-45.898,-41.504,-57.617,0.000
1621213636.440,-48.340,-52.246,-45.410,-33.203,0.000
1621213636.444,-38.086,-51.758,-30.273,-36.133,0.000
1621213636.448,-40.039,-41.504,-25.391,-48.828,0.000
1621213636.452,-36.133,-34.668,-44.922,-50.293,0.000
1621213636.456,-47.363,-33.691,-48.828,-39.062,0.000
1621213636.459,-41.016,-35.645,-44.434,-33.691,0.000
1621213636.463,-16.113,-35.156,-51.758,-31.738,0.000
1621213636.467,-15.137,-35.156,-47.852,-12.207,0.000
1621213636.471,-11.719,-39.551,-43.457,-29.785,0.000
1621213636.475,-17.090,-40.527,-38.574,-22.461,0.000
1621213636.479,-20.996,-36.133,-43.457,-20.020,0.000
1621213636.483,-20.020,-37.598,-53.711,-37.109,0.000
1621213636.487,-16.113,-36.621,-47.363,-38.574,0.000
1621213636.491,-5.859,-27.344,-48.340,-30.762,0.000
1621213636.495,-15.137,-31.250,-45.410,-21.973,0.000
1621213636.499,-33.691,-35.645,-44.434,-36.621,0.000
1621213636.502,-32.227,-32.715,-46.875,-31.250,0.000
1621213636.506,-25.879,-29.297,-45.410,-53.223,0.000
1621213636.510,-33.691,-34.668,-45.410,-56.641,0.000
1621213636.514,-18.555,-37.598,-38.086,-6.348,0.000
1621213636.518,-7.324,-31.738,-40.039,-21.973,0.000
1621213636.522,-34.180,-40.527,-49.805,-63.477,0.000
1621213636.526,-30.273,-43.457,-58.105,-38.574,0.000
1621213636.530,-20.508,-37.109,-46.387,-26.855,0.000
1621213636.534,-30.273,-38.574,-49.316,-55.176,0.000
1621213636.538,-26.855,-40.527,-53.711,-35.645,0.000
1621213636.541,-27.344,-38.574,-46.387,-33.203,0.000
1621213636.546,-27.344,-39.062,-53.711,-43.457,0.000
1621213636.549,-38.574,-44.922,-59.082,-56.152,0.000
1621213636.553,-41.992,-39.062,-67.871,-64.453,0.000
1621213636.557,-6.348,-46.875,-62.988,-1.953,0.000
1621213636.561,-11.230,-51.758,-44.434,-11.719,0.000
1621213636.565,-73.242,-43.945,-52.246,-81.543,0.000
1621213636.569,-66.895,-42.969,-66.895,-73.242,0.000
1621213636.573,-41.992,-39.062,-58.594,-34.180,0.000
1621213636.577,-55.176,-38.574,-58.105,-54.199,0.000
1621213636.581,-49.316,-40.039,-59.082,-80.078,0.000
1621213636.584,-54.688,-44.434,-56.641,-74.707,0.000
1621213636.588,-66.895,-46.875,-60.059,-79.590,0.000
1621213636.592,-53.711,-36.621,-64.453,-86.426,0.000
1621213636.596,-44.922,-34.180,-59.082,-72.754,0.000
1621213636.600,-48.828,-36.621,-54.688,-65.918,0.000
1621213636.604,-52.246,-36.621,-60.547,-65.430,0.000
1621213636.608,-47.363,-41.992,-58.105,-52.246,0.000
1621213636.612,-38.086,-39.062,-50.293,-49.805,0.000
1621213636.616,-42.480,-38.086,-48.828,-57.617,0.000
1621213636.620,-49.316,-41.504,-57.617,-57.617,0.000
1621213636.624,-40.527,-38.574,-53.223,-49.805,0.000
1621213636.627,-42.480,-45.410,-37.598,-52.246,0.000
1621213636.631,-41.992,-53.223,-48.828,-53.711,0.000
1621213636.635,-40.527,-52.734,-46.387,-49.316,0.000
1621213636.639,-34.180,-42.969,-36.621,-40.039,0.000
1621213636.643,-36.133,-38.574,-40.039,-39.062,0.000
1621213636.647,-48.340,-43.945,-42.480,-45.898,0.000
1621213636.651,-39.062,-50.781,-40.039,-45.410,0.000
1621213636.655,-35.645,-43.457,-47.363,-35.156,0.000
1621213636.659,-42.969,-38.574,-54.688,-31.250,0.000
1621213636.663,-40.527,-46.875,-49.805,-26.855,0.000
1621213636.667,-33.691,-51.758,-50.293,-25.391,0.000
1621213636.670,-34.180,-52.734,-44.922,-33.691,0.000
1621213636.674,-39.551,-50.293,-38.086,-28.320,0.000
1621213636.678,-43.457,-44.922,-36.133,-29.297,0.000
1621213636.682,-41.016,-40.039,-41.504,-38.086,0.000
1621213636.686,-38.574,-40.039,-45.410,-33.203,0.000
1621213636.690,-39.551,-44.922,-41.992,-30.273,0.000
1621213636.694,-37.109,-49.316,-48.828,-31.738,0.000
1621213636.698,-29.785,-42.480,-45.410,-31.250,0.000
1621213636.702,-29.785,-40.039,-38.086,-29.785,0.000
1621213636.706,-46.875,-50.293,-44.434,-30.762,0.000
1621213636.709,-47.852,-53.223,-49.805,-36.133,0.000
1621213636.713,-41.992,-47.852,-46.387,-37.598,0.000
1621213636.717,-50.781,-46.387,-41.992,-31.738,0.000
1621213636.721,-58.105,-43.945,-44.434,-29.297,0.000
1621213636.725,-56.152,-40.039,-50.781,-39.062,0.000
1621213636.729,-49.316,-41.504,-51.270,-47.363,0.000
1621213636.733,-32.227,-48.340,-50.293,-51.270,0.000
1621213636.737,-25.879,-48.828,-50.293,-44.922,0.000
1621213636.741,-33.691,-44.922,-46.387,-35.645,0.000
1621213636.745,-26.367,-41.504,-39.062,-32.227,0.000
1621213636.748,-32.715,-44.922,-36.621,-37.598,0.000
1621213636.752,-38.574,-49.316,-40.039,-37.109,0.000
1621213636.756,-36.621,-37.109,-41.504,-25.879,0.000
1621213636.760,-45.410,-26.367,-37.598,-33.691,0.000
1621213636.764,-41.016,-27.344,-36.621,-43.457,0.000
1621213636.768,-36.133,-31.250,-44.922,-41.016,0.000
1621213636.772,-35.156,-33.203,-41.504,-35.645,0.000
1621213636.776,-35.645,-28.809,-34.668,-33.203,0.000
1621213636.780,-38.086,-42.969,-39.062,-41.992,0.000
1621213636.784,-32.715,-51.758,-42.969,-40.039,0.000
1621213636.788,-33.203,-40.527,-41.992,-31.250,0.000
1621213636.792,-36.133,-39.551,-42.969,-32.715,0.000
1621213636.795,-30.273,-41.992,-47.363,-29.297,0.000
1621213636.799,-21.484,-35.645,-47.852,-25.879,0.000
1621213636.803,-25.391,-31.250,-48.340,-30.273,0.000
1621213636.807,-30.762,-35.645,-49.316,-30.273,0.000
1621213636.811,-38.574,-33.691,-45.898,-29.297,0.000
1621213636.815,-54.688,-33.691,-44.434,-37.109,0.000
1621213636.819,-47.363,-35.645,-39.062,-32.715,0.000
1621213636.823,-36.133,-38.086,-32.715,-23.438,0.000
1621213636.827,-32.227,-41.992,-34.180,-25.391,0.000
1621213636.831,-29.785,-47.852,-38.574,-26.855,0.000
1621213636.834,-30.762,-52.246,-46.875,-26.367,0.000
1621213636.838,-34.180,-54.199,-46.387,-15.625,0.000
1621213636.842,-39.062,-43.457,-40.527,-14.160,0.000
1621213636.846,-35.156,-29.297,-41.992,-26.855,0.000
1621213636.850,-25.391,-34.668,-48.828,-29.785,0.000
1621213636.854,-30.273,-36.133,-48.828,-38.086,0.000
1621213636.858,-35.645,-37.109,-43.945,-26.855,0.000
1621213636.862,-39.062,-46.387,-51.758,-23.438,0.000
1621213636.866,-35.645,-45.898,-53.711,-38.086,0.000
1621213636.870,-25.879,-41.504,-45.898,-33.691,0.000
1621213636.874,-43.457,-43.945,-41.504,-20.508,0.000
1621213636.877,-45.410,-46.875,-39.062,-19.531,0.000
1621213636.881,-39.551,-45.410,-39.551,-20.996,0.000
1621213636.885,-35.645,-41.504,-44.434,-23.926,0.000
1621213636.889,-34.180,-43.457,-41.992,-30.273,0.000
1621213636.893,-37.598,-45.410,-34.180,-24.414,0.000
1621213636.897,-13.184,-47.852,-32.715,-0.488,0.000
1621213636.901,-34.668,-44.922,-40.039,-17.578,0.000
1621213636.905,-53.711,-38.086,-47.363,-42.480,0.000
1621213636.909,-37.109,-41.992,-47.363,-36.133,0.000
1621213636.913,-43.945,-40.527,-48.340,-43.945,0.000
1621213636.916,-47.363,-35.156,-49.316,-43.945,0.000
1621213636.920,-54.688,-38.086,-57.129,-50.781,0.000
1621213636.924,-69.336,-31.738,-63.965,-65.430,0.000
1621213636.928,-54.688,-21.484,-61.035,-55.664,0.000
1621213636.932,-49.805,-23.926,-58.105,-49.316,0.000
1621213636.936,-62.500,-28.809,-59.570,-61.523,0.000
1621213636.940,-55.664,-28.809,-61.523,-64.941,0.000
1621213636.944,-53.711,-28.320,-60.059,-56.641,0.000
1621213636.948,-58.105,-37.598,-62.500,-44.922,0.000
1621213636.952,-62.988,-37.598,-61.523,-43.457,0.000
1621213636.956,-48.340,-34.668,-55.664,-38.086,0.000
1621213636.959,-31.738,-31.738,-54.688,-29.297,0.000
1621213636.963,-29.785,-33.203,-51.270,-34.180,0.000
1621213636.967,-34.668,-35.645,-53.223,-37.598,0.000
1621213636.971,-34.180,-31.250,-54.199,-34.668,0.000
1621213636.975,-30.762,-30.273,-48.340,-36.621,0.000
1621213636.979,-38.086,-33.691,-50.293,-41.992,0.000
1621213636.983,-36.133,-34.668,-55.176,-39.551,0.000
1621213636.987,-17.090,-38.574,-55.176,-34.668,0.000
1621213636.991,-20.996,-43.457,-47.363,-32.227,0.000
1621213636.995,-37.598,-39.062,-47.852,-34.180,0.000
1621213636.998,-29.297,-37.109,-55.176,-33.203,0.000
1621213637.002,-30.762,-35.156,-56.641,-33.203,0.000
1621213637.006,-26.855,-38.574,-52.246,-26.367,0.000
1621213637.010,-19.531,-42.969,-43.945,-18.555,0.000
1621213637.014,-28.320,-39.551,-44.434,-22.461,0.000
1621213637.018,-34.668,-44.922,-49.316,-22.461,0.000
1621213637.022,-27.344,-42.480,-50.781,-15.137,0.000
1621213637.026,-20.996,-37.109,-43.457,-5.371,0.000
1621213637.030,-36.133,-44.434,-40.527,-9.766,0.000
1621213637.034,-41.504,-45.410,-45.898,-30.762,0.000
1621213637.038,-34.668,-41.016,-48.340,-26.367,0.000
1621213637.041,-38.574,-40.039,-49.316,-16.602,0.000
1621213637.045,-36.133,-48.340,-48.828,-23.926,0.000
1621213637.049,-34.180,-51.270,-50.293,-21.973,0.000
1621213637.053,-38.574,-53.223,-51.758,-25.879,0.000
1621213637.057,-38.574,-45.410,-48.828,-25.391,0.000
1621213637.061,-30.273,-36.133,-49.805,-29.785,0.000
1621213637.065,-36.621,-42.969,-52.734,-37.109,0.000
1621213637.069,-34.668,-38.086,-47.363,-31.738,0.000
1621213637.073,-15.137,-35.156,-41.504,-27.832,0.000
1621213637.077,-22.461,-44.434,-43.457,-27.832,0.000
1621213637.081,-29.785,-46.387,-46.875,-32.715,0.000
1621213637.084,-29.785,-56.152,-46.875,-25.879,0.000
1621213637.088,-28.809,-59.082,-47.852,-21.484,0.000
1621213637.092,-25.879,-38.086,-53.711,-23.926,0.000
1621213637.096,-42.480,-37.109,-51.270,-33.203,0.000
1621213637.100,-41.504,-38.086,-46.387,-36.133,0.000
1621213637.104,-27.344,-40.039,-45.410,-33.203,0.000
1621213637.108,-37.109,-50.781,-43.945,-28.320,0.000
1621213637.112,-46.875,-50.781,-43.457,-26.367,0.000
1621213637.116,-44.922,-51.270,-42.480,-19.043,0.000
1621213637.120,-35.645,-48.828,-41.504,-18.066,0.000
1621213637.123,-24.902,-50.293,-41.016,-10.254,0.000
1621213637.127,-13.672,-44.434,-36.133,5.859,0.000
1621213637.131,-26.855,-35.156,-40.527,-24.414,0.000
1621213637.135,-42.480,-31.250,-51.758,-46.875,0.000
1621213637.139,-30.273,-31.738,-51.758,-36.133,0.000
1621213637.143,-23.926,-32.715,-48.828,-27.344,0.000
1621213637.147,-19.531,-34.668,-56.641,-29.297,0.000
1621213637.151,3.418,-28.809,-60.059,-26.367,0.000
1621213637.155,10.742,-29.297,-60.547,-20.020,0.000
1621213637.159,2.441,-36.621,-56.641,-11.230,0.000
1621213637.163,-2.441,-30.273,-49.805,-5.371,0.000
1621213637.166,-16.113,-43.457,-49.316,-9.277,0.000
1621213637.170,-17.090,-43.945,-46.875,-17.090,0.000
1621213637.174,-18.066,-29.297,-46.387,-13.184,0.000
1621213637.178,-16.113,-28.809,-44.922,-7.812,0.000
1621213637.182,-13.672,-26.855,-41.992,-18.555,0.000
1621213637.186,-18.066,-32.227,-44.434,-23.438,0.000
1621213637.190,-21.973,-42.969,-47.363,-21.973,0.000
1621213637.194,-25.391,-38.086,-50.781,-28.809,0.000
1621213637.198,-20.020,-40.039,-49.316,-32.715,0.000
1621213637.202,-15.137,-43.945,-46.875,-33.691,0.000
1621213637.206,-11.230,-34.180,-44.922,-29.297,0.000
1621213637.209,-12.207,-36.621,-42.480,-20.020,0.000
1621213637.213,-23.926,-41.016,-41.504,-24.414,0.000
1621213637.217,-21.973,-22.461,-42.969,-21.484,0.000
1621213637.221,-16.113,-23.926,-47.363,-19.531,0.000
1621213637.225,-16.602,-36.133,-46.387,-30.762,0.000
1621213637.229,-24.902,-30.762,-39.062,-23.438,0.000
1621213637.233,-10.742,-24.414,-38.574,-23.438,0.000
1621213637.237,8.789,-26.367,-41.016,-23.926,0.000
1621213637.241,-8.301,-36.133,-39.062,-23.926,0.000
1621213637.245,-20.996,-44.922,-38.086,-21.973,0.000
1621213637.249,-16.113,-33.203,-34.180,-17.090,0.000
1621213637.252,-21.973,-20.508,-32.715,-15.137,0.000
1621213637.256,-22.461,-27.832,-34.180,-15.137,0.000
1621213637.260,-22.461,-33.203,-39.062,-20.508,0.000
1621213637.264,-29.785,-34.180,-43.457,-22.949,0.000
1621213637.268,-26.855,-38.086,-42.480,-19.043,0.000
1621213637.272,-29.785,-36.621,-40.039,-19.531,0.000
1621213637.276,-26.367,-30.273,-39.062,-22.461,0.000
1621213637.280,-22.461,-34.668,-37.109,-23.926,0.000
1621213637.284,-23.926,-42.480,-41.016,-21.973,0.000
1621213637.288,-22.461,-47.363,-46.387,-14.648,0.000
1621213637.291,-41.504,-37.109,-50.293,-23.926,0.000
1621213637.295,-45.410,-12.207,-47.363,-37.598,0.000
1621213637.299,-26.855,-17.578,-46.875,-36.621,0.000
1621213637.303,-19.531,-30.273,-49.805,-23.926,0.000
1621213637.307,-22.461,-42.480,-47.852,-24.902,0.000
1621213637.311,-25.391,-52.734,-46.387,-35.645,0.000
1621213637.315,-22.461,-39.062,-42.969,-35.645,0.000
1621213637.319,-15.625,-35.156,-42.969,-41.016,0.000
1621213637.323,-23.438,-36.621,-43.945,-31.250,0.000
1621213637.327,-33.691,-43.945,-45.410,-27.344,0.000
1621213637.330,-29.297,-44.922,-45.898,-38.574,0.000
1621213637.334,-46.387,-38.574,-38.574,-34.180,0.000
1621213637.338,-64.941,-36.621,-31.250,-23.926,0.000
1621213637.342,-58.594,-36.133,-33.203,-24.902,0.000
1621213637.346,-56.152,-40.527,-40.527,-37.598,0.000
1621213637.350,-64.941,-35.156,-46.875,-42.480,0.000
1621213637.354,-62.500,-33.203,-47.852,-34.180,0.000
1621213637.358,-51.270,-32.715,-44.434,-28.809,0.000
1621213637.362,-36.621,-26.855,-45.410,-28.809,0.000
1621213637.366,-21.484,-23.926,-43.457,-24.414,0.000
1621213637.370,-25.391,-28.320,-40.527,-15.137,0.000
1621213637.373,-30.762,-37.109,-40.527,-25.879,0.000
1621213637.377,-21.973,-30.273,-44.922,-33.691,0.000
1621213637.381,-0.977,-20.020,-53.711,-20.996,0.000
1621213637.385,20.508,-31.250,-47.363,-8.789,0.000
1621213637.389,-15.137,-38.086,-40.039,-20.996,0.000
1621213637.393,-44.434,-31.250,-41.016,-41.992,0.000
1621213637.397,-35.156,-28.809,-42.480,-51.758,0.000
1621213637.401,-26.855,-27.344,-40.527,-41.504,0.000
1621213637.405,-18.555,-32.715,-29.785,-28.320,0.000
1621213637.409,-23.438,-36.133,-25.879,-28.320,0.000
1621213637.413,-34.668,-40.039,-32.715,-32.715,0.000
1621213637.416,-25.879,-39.551,-28.809,-28.320,0.000
1621213637.420,-20.996,-32.715,-24.902,-14.160,0.000
1621213637.424,-26.855,-39.062,-35.645,-9.277,0.000
1621213637.428,-24.414,-37.109,-41.992,-10.254,0.000
1621213637.432,-30.273,-34.668,-44.922,-29.297,0.000
1621213637.436,-32.715,-39.551,-44.922,-27.344,0.000
1621213637.440,-22.949,-33.691,-43.457,-17.090,0.000
1621213637.444,-18.555,-32.715,-37.109,-20.996,0.000
1621213637.448,-29.785,-35.645,-38.086,-29.297,0.000
1621213637.452,-34.180,-37.598,-44.922,-27.344,0.000
1621213637.455,-35.645,-38.086,-47.852,-15.625,0.000
1621213637.459,-41.016,-44.434,-51.270,-21.484,0.000
1621213637.463,-36.133,-51.270,-49.805,-28.320,0.000
1621213637.467,-39.062,-53.223,-46.875,-22.949,0.000
1621213637.471,-34.180,-39.551,-41.992,-15.137,0.000
1621213637.475,-23.926,-39.551,-32.715,-19.043,0.000
1621213637.479,-23.926,-48.828,-35.156,-24.414,0.000
1621213637.483,-30.762,-35.156,-38.086,-28.320,0.000
1621213637.487,-38.574,-33.691,-35.156,-31.250,0.000
1621213637.491,-26.855,-46.387,-28.809,-21.484,0.000
1621213637.495,-20.996,-42.969,-23.926,-9.766,0.000
1621213637.498,-29.785,-33.691,-32.227,-14.160,0.000
1621213637.502,-35.156,-36.133,-42.480,-15.625,0.000
1621213637.506,-25.879,-44.922,-41.504,-22.949,0.000
1621213637.510,-33.691,-41.016,-41.016,-28.320,0.000
1621213637.514,-23.926,-33.691,-41.992,-26.855,0.000
1621213637.518,-22.949,-40.039,-33.203,-26.855,0.000
1621213637.522,-36.621,-42.969,-33.691,-19.043,0.000
1621213637.526,-31.250,-43.457,-41.016,-21.973,0.000
1621213637.530,-17.578,-39.062,-41.504,-24.902,0.000
1621213637.534,-20.508,-37.109,-33.691,-17.090,0.000
1621213637.538,-34.668,-40.039,-34.668,-26.855,0.000
1621213637.541,-17.578,-39.551,-45.410,-31.738,0.000
1621213637.545,-13.672,-39.062,-44.922,-23.438,0.000
1621213637.549,-23.926,-41.016,-41.016,-26.855,0.000
1621213637.553,-36.133,-41.504,-38.086,-28.320,0.000
1621213637.557,-37.598,-41.504,-41.504,-41.992,0.000
1621213637.561,-29.785,-39.551,-43.945,-40.527,0.000
1621213637.565,-33.203,-29.297,-41.504,-31.250,0.000
1621213637.569,-34.180,-40.039,-42.969,-31.250,0.000
1621213637.573,-20.020,-50.293,-42.969,-27.832,0.000
1621213637.577,-27.344,-37.109,-41.016,-25.391,0.000
1621213637.581,-27.344,-33.691,-43.457,-25.391,0.000
1621213637.584,-27.832,-30.762,-44.434,-19.043,0.000
1621213637.588,-27.832,-31.250,-41.016,-15.137,0.000
1621213637.592,-25.391,-40.039,-43.945,-23.438,0.000
1621213637.596,-23.438,-40.039,-43.945,-18.555,0.000
1621213637.600,-12.695,-43.945,-43.457,-23.926,0.000
1621213637.604,-23.438,-52.734,-43.945,-33.203,0.000
1621213637.608,-36.133,-42.480,-41.016,-26.367,0.000
1621213637.612,-28.809,-34.668,-37.109,-26.855,0.000
1621213637.616,-31.738,-34.180,-35.645,-24.902,0.000
1621213637.619,-27.344,-33.691,-38.086,-23.926,0.000
1621213637.624,-20.508,-34.668,-41.992,-27.344,0.000
1621213637.627,-22.949,-29.297,-41.992,-32.227,0.000
1621213637.631,-17.578,-31.738,-40.527,-25.391,0.000
1621213637.635,-23.926,-39.062,-47.363,-31.250,0.000
1621213637.639,-25.391,-35.645,-44.434,-32.715,0.000
1621213637.643,-23.438,-38.086,-38.574,-18.555,0.000
1621213637.647,-24.902,-41.992,-40.039,-25.391,0.000
1621213637.651,-22.461,-36.621,-42.480,-40.039,0.000
1621213637.655,-35.156,-36.133,-42.480,-30.762,0.000
1621213637.659,-34.180,-40.039,-37.109,-21.484,0.000
1621213637.662,-19.531,-35.645,-43.945,-13.672,0.000
1621213637.666,-2.441,-34.668,-32.715,-4.395,0.000
1621213637.670,-31.250,-41.504,-18.555,-17.090,0.000
1621213637.674,-52.246,-42.480,-32.227,-27.344,0.000
1621213637.678,-34.180,-31.738,-34.668,-21.973,0.000
1621213637.682,-36.133,-29.297,-28.809,-22.949,0.000
1621213637.686,-32.715,-32.227,-32.227,-31.250,0.000
1621213637.690,-23.438,-35.645,-36.133,-33.203,0.000
1621213637.694,-31.250,-40.039,-32.227,-35.645,0.000
1621213637.698,-30.273,-35.645,-31.250,-29.785,0.000
1621213637.702,-32.715,-35.156,-28.320,-23.438,0.000
1621213637.705,-37.598,-30.273,-25.879,-19.531,0.000
1621213637.709,-29.297,-27.344,-31.250,-14.648,0.000
1621213637.713,-25.879,-28.320,-31.250,-16.113,0.000
1621213637.717,-20.996,-32.715,-29.785,-22.461,0.000
1621213637.721,-14.160,-39.551,-31.250,-20.508,0.000
1621213637.725,-22.949,-37.598,-32.227,-22.949,0.000
1621213637.729,-36.621,-34.180,-34.668,-39.062,0.000
1621213637.733,-35.645,-40.527,-35.645,-31.250,0.000
1621213637.737,-30.273,-42.969,-39.551,-16.113,0.000
1621213637.741,-21.484,-38.086,-38.574,-18.555,0.000
1621213637.745,-25.391,-40.039,-33.691,-28.320,0.000
1621213637.748,-34.180,-47.363,-32.715,-34.668,0.000
1621213637.752,-21.973,-43.945,-33.691,-37.109,0.000
1621213637.756,-13.184,-32.715,-33.691,-29.297,0.000
1621213637.760,-20.508,-41.504,-37.109,-21.484,0.000
1621213637.764,-27.344,-43.457,-44.434,-31.738,0.000
1621213637.768,-28.809,-39.551,-41.504,-27.832,0.000
1621213637.772,-20.508,-39.062,-32.715,-16.113,0.000
1621213637.776,-3.906,-38.574,-30.762,-13.672,0.000
1621213637.780,4.883,-40.527,-29.297,-14.648,0.000
1621213637.784,-12.695,-44.922,-25.879,-13.672,0.000
1621213637.787,-17.578,-40.039,-26.855,-7.812,0.000
1621213637.791,-18.555,-25.391,-33.691,-9.766,0.000
1621213637.795,-15.625,-22.461,-37.109,-20.020,0.000
1621213637.799,-17.090,-26.367,-37.598,-25.391,0.000
1621213637.803,-19.531,-25.391,-40.527,-27.344,0.000
1621213637.807,-20.996,-24.414,-42.480,-32.227,0.000
1621213637.811,-21.484,-26.367,-42.480,-23.438,0.000
1621213637.815,-13.184,-24.414,-41.504,-21.973,0.000
1621213637.819,-20.508,-24.902,-38.574,-21.973,0.000
1621213637.823,-27.832,-28.809,-41.992,-23.438,0.000
1621213637.827,-24.414,-24.902,-46.387,-33.203,0.000
1621213637.830,-24.902,-21.484,-37.598,-32.227,0.000
1621213637.834,-31.738,-27.344,-36.133,-23.926,0.000
1621213637.838,-25.391,-27.832,-34.668,-16.113,0.000
1621213637.842,-13.672,-27.344,-27.832,-15.625,0.000
1621213637.846,-16.113,-30.762,-28.809,-19.531,0.000
1621213637.850,-23.438,-29.785,-31.738,-20.020,0.000
1621213637.854,-18.555,-31.250,-33.203,-9.766,0.000
1621213637.858,-18.066,-31.738,-33.203,-4.395,0.000
1621213637.862,-24.902,-32.227,-33.691,-10.254,0.000
1621213637.866,-22.949,-38.574,-32.715,-22.949,0.000
1621213637.869,-20.020,-34.180,-33.203,-20.020,0.000
1621213637.873,-17.578,-44.434,-32.715,-16.602,0.000
1621213637.877,-17.578,-50.781,-30.273,-17.578,0.000
1621213637.881,-29.297,-27.344,-28.809,-24.902,0.000
1621213637.885,-24.414,-22.949,-35.645,-38.086,0.000
1621213637.889,0.000,-32.227,-49.316,-29.785,0.000
1621213637.893,-5.859,-29.785,-44.434,-14.648,0.000
1621213637.897,-20.508,-28.809,-29.785,-23.926,0.000
1621213637.901,-33.691,-31.738,-22.461,-31.738,0.000
1621213637.905,-36.621,-30.273,-25.879,-30.273,0.000
1621213637.909,-27.344,-28.809,-28.809,-32.715,0.000
1621213637.912,-33.691,-42.969,-17.090,-16.602,0.000
1621213637.916,-30.273,-42.480,-21.484,-20.020,0.000
1621213637.920,-29.785,-24.414,-23.438,-36.621,0.000
1621213637.924,-28.320,-27.344,-16.113,-24.414,0.000
1621213637.928,-15.137,-39.062,-12.695,-16.602,0.000
1621213637.932,-26.855,-40.527,-9.277,-23.926,0.000
1621213637.936,-25.391,-39.551,-15.137,-25.391,0.000
1621213637.940,-9.766,-32.227,-20.020,-17.578,0.000
1621213637.944,-19.043,-32.227,-16.113,-7.324,0.000
1621213637.948,-15.625,-39.062,-16.113,-4.395,0.000
1621213637.952,-8.789,-36.133,-17.578,-19.043,0.000
1621213637.955,-4.395,-24.902,-19.531,-12.207,0.000
1621213637.959,-5.859,-18.066,-24.902,-8.789,0.000
1621213637.963,-24.414,-25.879,-29.785,-26.367,0.000
1621213637.967,-26.855,-22.461,-35.156,-23.438,0.000
1621213637.971,-24.902,-20.996,-31.250,-16.113,0.000
1621213637.975,-29.785,-23.926,-31.250,-13.184,0.000
1621213637.979,-30.273,-33.203,-33.203,-15.137,0.000
1621213637.983,-26.367,-38.574,-31.250,-17.578,0.000
1621213637.987,-20.508,-26.367,-29.297,-18.066,0.000
1621213637.991,-10.254,-24.902,-27.832,-27.832,0.000
1621213637.994,-5.371,-37.598,-28.809,-22.461,0.000
1621213637.998,-16.113,-38.574,-32.715,-17.090,0.000
1621213638.002,-29.785,-30.273,-36.621,-18.066,0.000
1621213638.006,-37.598,-26.855,-34.180,-10.742,0.000
1621213638.010,-30.273,-28.320,-33.691,-13.672,0.000
1621213638.014,-21.484,-33.691,-28.320,-11.719,0.000
1621213638.018,-25.391,-32.227,-25.879,-8.789,0.000
1621213638.022,-11.719,-27.832,-28.320,-14.648,0.000
1621213638.026,-13.672,-31.250,-30.273,-9.766,0.000
1621213638.030,-26.855,-34.668,-31.738,-15.137,0.000
1621213638.034,-12.207,-26.855,-29.297,-25.879,0.000
1621213638.037,-26.855,-21.484,-29.785,-19.531,0.000
1621213638.041,-35.645,-33.691,-35.156,-23.438,0.000
1621213638.045,-20.996,-39.062,-40.527,-32.715,0.000
1621213638.049,-29.785,-23.926,-43.945,-34.668,0.000
1621213638.053,-30.273,-18.555,-45.410,-35.156,0.000
1621213638.057,-17.090,-25.879,-48.340,-42.969,0.000
1621213638.061,-20.996,-16.113,-44.434,-34.668,0.000
1621213638.065,-34.668,-14.160,-40.039,-30.762,0.000
1621213638.069,-24.414,-28.320,-38.086,-27.832,0.000
1621213638.073,-26.855,-33.203,-35.645,-29.785,0.000
1621213638.076,-36.133,-22.949,-36.621,-25.879,0.000
1621213638.080,-29.297,-18.555,-41.504,-20.996,0.000
1621213638.084,-38.086,-31.738,-47.852,-41.016,0.000
1621213638.088,-36.133,-62.988,-46.387,-45.898,0.000
1621213638.092,-22.461,-47.852,-44.434,-32.715,0.000
1621213638.096,-29.785,-17.578,-42.969,-30.762,0.000
1621213638.100,-32.715,-31.250,-37.109,-33.691,0.000
1621213638.104,-25.879,-25.879,-39.551,-32.715,0.000
1621213638.108,-13.184,-27.832,-41.016,-33.691,0.000
1621213638.112,-14.648,-34.668,-36.621,-36.621,0.000
1621213638.116,-21.484,-32.227,-38.086,-34.180,0.000
1621213638.119,-16.602,-37.598,-38.086,-29.785,0.000
1621213638.123,-11.719,-37.109,-42.969,-26.855,0.000
1621213638.127,-15.137,-32.227,-42.480,-24.902,0.000
1621213638.131,-13.672,-35.645,-39.551,-32.227,0.000
1621213638.135,-12.695,-41.016,-41.504,-30.762,0.000
1621213638.139,-24.902,-36.133,-38.574,-23.438,0.000
1621213638.143,-24.902,-32.227,-36.621,-21.973,0.000
1621213638.147,-15.625,-37.109,-39.062,-20.020,0.000
1621213638.151,-14.160,-44.434,-41.504,-24.902,0.000
1621213638.155,-8.789,-52.246,-39.062,-9.766,0.000
1621213638.159,4.883,-48.828,-41.992,-2.441,0.000
1621213638.162,-15.137,-32.715,-43.457,-34.668,0.000
1621213638.166,-40.527,-16.602,-42.969,-49.316,0.000
1621213638.170,-28.809,-15.625,-42.480,-45.410,0.000
1621213638.174,-26.855,-20.020,-45.898,-43.457,0.000
1621213638.178,-21.973,-20.996,-52.246,-33.691,0.000
1621213638.182,-13.184,-26.367,-49.316,-42.480,0.000
1621213638.186,-13.672,-30.273,-48.828,-45.410,0.000
1621213638.190,-16.113,-30.273,-51.270,-24.414,0.000
1621213638.194,-11.230,-38.574,-44.434,-25.391,0.000
1621213638.198,-20.508,-41.992,-44.922,-42.969,0.000
1621213638.201,-32.227,-31.250,-48.828,-37.598,0.000
1621213638.205,-30.273,-39.551,-51.758,-31.250,0.000
1621213638.209,-14.648,-55.664,-52.734,-25.391,0.000
1621213638.213,-17.578,-31.250,-46.387,-28.320,0.000
1621213638.217,-31.738,-15.137,-41.992,-34.668,0.000
1621213638.221,-25.879,-19.531,-41.016,-30.762,0.000
1621213638.225,-28.809,-20.996,-43.945,-21.484,0.000
1621213638.229,-33.691,-35.156,-45.898,-20.508,0.000
1621213638.233,-35.156,-33.691,-41.992,-31.738,0.000
1621213638.237,-26.367,-31.250,-34.668,-26.855,0.000
1621213638.241,-15.137,-34.180,-32.227,-14.160,0.000
1621213638.244,-16.113,-31.250,-32.227,-14.160,0.000
1621213638.248,-21.484,-24.902,-34.668,-27.832,0.000
1621213638.252,-28.809,-26.367,-42.480,-32.227,0.000
1621213638.256,-26.367,-42.480,-42.969,-30.273,0.000
1621213638.260,-15.137,-37.598,-41.504,-23.926,0.000
1621213638.264,-18.555,-21.484,-37.109,-19.043,0.000
1621213638.268,-27.832,-19.043,-28.809,-20.996,0.000
1621213638.272,-29.785,-24.902,-33.203,-21.973,0.000
1621213638.276,-18.066,-29.785,-37.109,-12.695,0.000
1621213638.280,-24.414,-37.109,-34.180,-18.555,0.000
1621213638.284,-22.949,-38.574,-34.668,-30.273,0.000
1621213638.288,-23.438,-29.297,-40.039,-27.344,0.000
1621213638.291,-26.855,-19.043,-37.598,-13.184,0.000
1621213638.295,-23.926,-23.438,-30.273,-10.254,0.000
1621213638.299,-33.691,-38.574,-35.645,-27.832,0.000
1621213638.303,-33.691,-35.156,-41.992,-28.320,0.000
1621213638.307,-38.574,-29.297,-41.992,-19.531,0.000
1621213638.311,-42.969,-37.109,-44.434,-28.809,0.000
1621213638.315,-41.016,-43.945,-46.387,-36.621,0.000
1621213638.319,-33.203,-47.363,-46.875,-32.227,0.000
1621213638.323,-41.016,-39.551,-47.852,-37.109,0.000
1621213638.327,-45.410,-26.855,-47.852,-39.551,0.000
1621213638.331,-41.992,-25.391,-41.504,-35.645,0.000
1621213638.334,-38.086,-34.180,-40.527,-31.250,0.000
1621213638.338,-21.973,-40.527,-41.992,-21.973,0.000
1621213638.342,-25.391,-30.273,-43.457,-27.344,0.000
1621213638.346,-40.527,-30.273,-45.898,-26.367,0.000
1621213638.350,-35.645,-30.273,-46.387,-31.250,0.000
1621213638.354,-32.227,-31.250,-43.945,-41.992,0.000
1621213638.358,-33.203,-34.180,-45.898,-34.180,0.000
1621213638.362,-29.297,-33.203,-46.875,-29.297,0.000
1621213638.366,-20.996,-32.227,-42.480,-29.785,0.000
1621213638.369,-22.949,-34.668,-39.551,-25.391,0.000
1621213638.373,-37.598,-33.203,-44.434,-22.949,0.000
1621213638.377,-26.855,-36.621,-51.270,-24.902,0.000
1621213638.381,-32.227,-44.434,-48.340,-32.715,0.000
1621213638.385,-44.434,-38.574,-45.410,-26.367,0.000
1621213638.389,-38.086,-44.922,-50.293,-19.043,0.000
1621213638.393,-26.855,-42.480,-52.734,-25.879,0.000
1621213638.397,-24.414,-33.691,-49.316,-26.855,0.000
1621213638.401,-31.738,-37.598,-41.504,-24.414,0.000
1621213638.405,-43.945,-42.480,-35.645,-26.855,0.000
1621213638.409,-35.156,-46.387,-39.062,-16.113,0.000
1621213638.412,-23.438,-53.223,-45.410,-14.648,0.000
1621213638.416,-22.461,-39.551,-41.504,-8.301,0.000
1621213638.420,-15.625,-32.227,-38.574,-10.254,0.000
1621213638.424,-31.738,-41.016,-42.480,-19.043,0.000
1621213638.428,-34.668,-36.621,-47.363,-23.926,0.000
1621213638.432,-13.184,-37.598,-45.898,-29.785,0.000
1621213638.436,-19.043,-39.062,-45.410,-33.203,0.000
1621213638.440,-20.020,-37.109,-48.828,-19.531,0.000
1621213638.444,-28.320,-39.551,-49.805,-18.555,0.000
1621213638.448,-38.086,-41.504,-49.805,-30.273,0.000
1621213638.452,-38.086,-38.086,-46.875,-27.344,0.000
1621213638.455,-44.434,-29.297,-38.086,-27.832,0.000
1621213638.459,-27.344,-21.973,-34.180,-23.438,0.000
1621213638.463,-25.391,-25.391,-35.156,-28.320,0.000
1621213638.467,-34.180,-34.668,-36.133,-32.715,0.000
1621213638.471,-23.926,-46.387,-37.598,-26.367,0.000
1621213638.475,-30.273,-36.133,-33.691,-26.855,0.000
1621213638.479,-37.109,-21.973,-37.598,-30.762,0.000
1621213638.483,-36.621,-32.715,-40.527,-21.484,0.000
1621213638.487,-27.832,-37.598,-35.645,-19.531,0.000
1621213638.491,-10.742,-29.297,-30.762,-36.133,0.000
1621213638.495,-24.902,-28.320,-32.227,-26.367,0.000
1621213638.498,-31.738,-31.738,-36.133,-22.949,0.000
1621213638.502,-16.113,-32.227,-36.133,-32.227,0.000
1621213638.506,-13.672,-32.227,-36.621,-28.809,0.000
1621213638.510,-20.996,-34.180,-37.598,-23.438,0.000
1621213638.514,-19.531,-32.227,-41.016,-25.879,0.000
1621213638.518,-22.949,-30.762,-47.363,-33.203,0.000
1621213638.522,-19.043,-29.785,-49.805,-28.320,0.000
1621213638.526,-5.859,-26.367,-41.016,-10.254,0.000
1621213638.530,-20.996,-29.785,-31.250,-13.184,0.000
1621213638.534,-38.086,-39.062,-33.203,-21.973,0.000
1621213638.537,-35.156,-42.969,-35.645,-19.043,0.000
1621213638.541,-43.945,-39.062,-35.645,-29.785,0.000
1621213638.545,-47.852,-43.945,-34.180,-41.016,0.000
1621213638.549,-39.551,-41.504,-33.691,-39.062,0.000
1621213638.553,-41.992,-44.434,-30.762,-39.551,0.000
1621213638.557,-42.480,-51.758,-21.484,-32.715,0.000
1621213638.561,-41.016,-43.457,-25.879,-25.879,0.000
1621213638.565,-44.434,-41.992,-25.879,-40.039,0.000
1621213638.569,-51.270,-50.781,-24.414,-43.945,0.000
1621213638.573,-52.734,-54.199,-33.203,-37.109,0.000
1621213638.577,-53.223,-61.035,-32.227,-37.598,0.000
1621213638.580,-44.434,-56.152,-32.715,-33.691,0.000
1621213638.584,-31.738,-46.387,-34.180,-29.297,0.000
1621213638.588,-36.133,-55.664,-32.227,-24.902,0.000
1621213638.592,-35.156,-59.082,-33.203,-11.230,0.000
1621213638.596,-38.574,-41.504,-40.039,-14.160,0.000
1621213638.600,-33.203,-42.480,-33.203,-17.090,0.000
1621213638.604,-13.672,-52.246,-24.414,-3.906,0.000
1621213638.608,-20.020,-46.875,-29.297,-4.395,0.000
1621213638.612,-9.766,-38.574,-33.691,-6.836,0.000
1621213638.616,-9.766,-34.668,-27.832,-2.930,0.000
1621213638.619,-25.879,-32.715,-28.809,-16.113,0.000
1621213638.623,-19.531,-32.715,-35.645,-18.555,0.000
1621213638.627,-22.461,-35.645,-41.504,-11.719,0.000
1621213638.631,-34.180,-41.016,-46.387,-31.250,0.000
1621213638.635,-25.391,-40.039,-42.480,-31.250,0.000
1621213638.639,-14.648,-35.645,-39.551,-19.531,0.000
1621213638.643,-16.113,-31.250,-34.180,-20.508,0.000
1621213638.647,-19.043,-39.062,-31.738,-14.160,0.000
1621213638.651,-22.949,-45.410,-31.250,-13.672,0.000
1621213638.655,-24.902,-37.109,-29.785,-22.949,0.000
1621213638.659,-28.809,-30.762,-30.762,-20.020,0.000
1621213638.662,-31.250,-30.762,-29.297,-20.996,0.000
1621213638.666,-15.137,-35.156,-26.855,-21.484,0.000
1621213638.670,-22.461,-44.434,-28.809,-24.414,0.000
1621213638.674,-38.574,-51.270,-28.809,-18.066,0.000
1621213638.678,-36.621,-38.086,-29.297,-10.742,0.000
1621213638.682,-32.227,-25.391,-36.621,-25.391,0.000
1621213638.686,-31.738,-21.973,-31.250,-28.320,0.000
1621213638.690,-23.438,-33.691,-25.391,-27.832,0.000
1621213638.694,-23.926,-41.992,-31.738,-24.902,0.000
1621213638.698,-38.574,-35.645,-28.809,-21.484,0.000
1621213638.702,-38.086,-35.156,-25.391,-18.066,0.000
1621213638.705,-35.156,-40.527,-27.832,-17.090,0.000
1621213638.709,-36.621,-40.039,-27.832,-29.297,0.000
1621213638.713,-29.297,-33.203,-25.879,-24.414,0.000
1621213638.717,-27.344,-30.273,-36.133,-24.414,0.000
1621213638.721,-38.574,-31.738,-43.945,-28.809,0.000
1621213638.725,-32.227,-35.645,-37.598,-25.391,0.000
1621213638.729,-31.250,-39.062,-35.645,-31.738,0.000
1621213638.733,-40.039,-40.039,-38.574,-30.762,0.000
1621213638.737,-39.551,-32.715,-38.086,-27.344,0.000
1621213638.741,-32.227,-35.156,-39.551,-28.809,0.000
1621213638.744,-25.391,-38.086,-42.969,-29.785,0.000
1621213638.748,-32.227,-37.109,-43.945,-35.645,0.000
1621213638.752,-31.250,-32.227,-42.480,-26.855,0.000
1621213638.756,-26.367,-25.391,-41.504,-22.461,0.000
1621213638.760,-24.414,-25.391,-43.457,-26.367,0.000
1621213638.764,-30.762,-43.457,-42.969,-25.391,0.000
1621213638.768,-34.668,-47.852,-42.480,-26.855,0.000
1621213638.772,-20.508,-31.738,-50.293,-30.762,0.000
1621213638.776,-17.090,-27.344,-47.852,-38.086,0.000
1621213638.780,-24.414,-26.367,-42.480,-37.109,0.000
1621213638.784,-9.766,-35.156,-44.434,-43.457,0.000
1621213638.787,-20.020,-38.086,-50.293,-44.434,0.000
1621213638.791,-41.016,-28.320,-55.176,-30.273,0.000
1621213638.795,-41.016,-23.926,-52.246,-27.832,0.000
1621213638.799,-43.457,-34.180,-47.363,-44.434,0.000
1621213638.803,-40.527,-44.922,-42.969,-42.480,0.000
1621213638.807,-44.434,-35.156,-36.133,-32.227,0.000
1621213638.811,-38.086,-30.762,-37.109,-26.855,0.000
1621213638.815,-20.508,-37.109,-38.086,-13.184,0.000
1621213638.819,-32.227,-40.527,-34.668,-16.113,0.000
1621213638.823,-54.688,-35.645,-42.969,-33.691,0.000
1621213638.826,-55.664,-31.738,-47.363,-41.016,0.000
1621213638.830,-50.781,-34.180,-46.387,-41.504,0.000
1621213638.834,-46.387,-39.062,-48.340,-40.039,0.000
1621213638.838,-53.223,-34.668,-50.781,-32.227,0.000
1621213638.842,-50.293,-34.180,-52.734,-33.691,0.000
1621213638.846,-40.527,-34.180,-55.664,-33.691,0.000
1621213638.850,-43.457,-29.785,-54.688,-35.645,0.000
1621213638.854,-42.480,-34.180,-54.688,-34.180,0.000
1621213638.858,-26.855,-38.574,-52.246,-36.133,0.000
1621213638.862,-22.949,-35.156,-48.828,-37.598,0.000
1621213638.866,-35.156,-37.598,-49.316,-36.133,0.000
1621213638.869,-30.762,-43.457,-44.922,-26.855,0.000
1621213638.873,-24.902,-42.969,-44.434,-25.879,0.000
1621213638.877,-26.367,-33.203,-41.016,-31.250,0.000
1621213638.881,-28.809,-28.809,-42.480,-25.879,0.000
1621213638.885,-22.461,-31.250,-51.758,-32.715,0.000
1621213638.889,-13.184,-34.668,-50.781,-40.039,0.000
1621213638.893,-31.250,-44.922,-45.410,-31.738,0.000
1621213638.897,-35.645,-39.551,-44.922,-24.414,0.000
1621213638.901,-26.855,-30.273,-47.852,-26.367,0.000
1621213638.905,-13.184,-40.039,-43.457,-24.902,0.000
1621213638.909,-17.090,-45.410,-38.574,-19.531,0.000
1621213638.912,-36.133,-32.715,-36.133,-2.930,0.000
1621213638.916,-31.738,-26.855,-38.086,-4.395,0.000
1621213638.920,-30.273,-29.297,-45.410,-23.926,0.000
1621213638.924,-42.480,-36.133,-45.898,-26.855,0.000
1621213638.928,-35.156,-40.039,-44.434,-23.438,0.000
1621213638.932,-20.508,-43.945,-45.898,-19.043,0.000
1621213638.936,-21.973,-40.039,-45.898,-18.066,0.000
1621213638.940,-28.809,-39.062,-42.480,-19.043,0.000
1621213638.944,-23.926,-38.086,-41.504,-20.508,0.000
1621213638.948,-25.879,-38.086,-43.945,-25.391,0.000
1621213638.951,-25.879,-40.039,-43.945,-24.414,0.000
1621213638.955,-15.625,-33.691,-42.969,-24.414,0.000
1621213638.959,-12.695,-32.715,-44.922,-21.484,0.000
1621213638.963,-2.930,-35.645,-51.758,-16.602,0.000
1621213638.967,-2.930,-35.156,-46.875,-15.137,0.000
1621213638.971,-19.043,-41.504,-42.969,-18.066,0.000
1621213638.975,-27.832,-40.039,-48.828,-23.926,0.000
1621213638.979,-28.320,-33.691,-43.457,-24.902,0.000
1621213638.983,-14.648,-33.691,-35.156,-22.949,0.000
1621213638.987,-11.719,-36.133,-34.180,-28.320,0.000
1621213638.991,-22.461,-39.551,-37.598,-28.320,0.000
1621213638.994,-21.484,-42.480,-42.480,-19.043,0.000
1621213638.998,-26.367,-42.480,-43.457,-28.320,0.000
1621213639.002,-30.273,-43.945,-43.945,-37.598,0.000
1621213639.006,-33.691,-37.598,-47.852,-29.785,0.000
1621213639.010,-35.156,-27.832,-48.340,-20.020,0.000
1621213639.014,-28.809,-26.367,-45.898,-24.902,0.000
1621213639.018,-17.578,-32.715,-42.480,-24.414,0.000
1621213639.022,-13.672,-30.762,-41.992,-20.996,0.000
1621213639.026,-22.461,-25.879,-41.504,-33.203,0.000
1621213639.030,-20.020,-29.297,-35.156,-29.297,0.000
1621213639.034,-11.230,-24.902,-35.156,-25.879,0.000
1621213639.037,-23.438,-26.855,-41.016,-33.203,0.000
1621213639.041,-22.461,-24.414,-35.156,-22.949,0.000
1621213639.045,-20.020,-24.902,-28.809,-14.648,0.000
1621213639.049,-26.367,-39.062,-35.645,-24.414,0.000
1621213639.053,-23.926,-42.969,-39.062,-30.762,0.000
1621213639.057,-19.043,-38.086,-36.133,-24.902,0.000
1621213639.061,-24.902,-33.203,-35.156,-32.715,0.000
1621213639.065,-25.391,-32.715,-32.227,-34.180,0.000
1621213639.069,-32.715,-24.902,-34.180,-35.645,0.000
1621213639.072,-33.691,-28.320,-36.621,-23.438,0.000
1621213639.077,-15.625,-34.180,-33.691,-18.555,0.000
1621213639.080,-7.812,-28.809,-49.805,-17.578,0.000
1621213639.084,-15.137,-27.344,-48.340,-19.531,0.000
1621213639.088,-36.133,-38.574,-25.879,-32.715,0.000
1621213639.092,-38.086,-38.574,-29.785,-33.203,0.000
1621213639.096,-19.043,-35.645,-42.969,-30.273,0.000
1621213639.100,-8.301,-41.016,-40.527,-17.090,0.000
1621213639.104,-14.160,-37.598,-30.273,-18.066,0.000
1621213639.108,-7.812,-46.387,-36.133,-19.043,0.000
1621213639.112,0.977,-41.504,-32.227,-2.930,0.000
1621213639.116,-15.625,-35.156,-27.344,5.859,0.000
1621213639.119,-16.113,-41.504,-36.133,-4.395,0.000
1621213639.123,-0.488,-37.598,-32.227,-0.488,0.000
1621213639.127,-3.418,-36.133,-32.715,-0.488,0.000
1621213639.131,-14.648,-38.086,-33.203,-5.371,0.000
1621213639.135,0.488,-33.203,-28.320,5.371,0.000
1621213639.139,-3.906,-36.133,-30.273,3.906,0.000
1621213639.143,-7.324,-39.062,-32.715,-2.441,0.000
1621213639.147,-18.066,-33.203,-33.203,-18.066,0.000
1621213639.151,-37.109,-41.504,-30.762,-23.926,0.000
1621213639.155,-23.926,-52.246,-33.203,-10.742,0.000
1621213639.159,-6.836,-34.180,-39.062,-5.859,0.000
1621213639.162,-10.254,-30.273,-38.086,-4.883,0.000
1621213639.166,-11.719,-42.480,-36.133,-1.953,0.000
1621213639.170,-10.254,-39.551,-35.156,0.977,0.000
1621213639.174,-4.395,-34.180,-39.062,0.000,0.000
1621213639.178,0.000,-36.621,-36.621,-1.465,0.000
1621213639.182,1.465,-39.551,-26.367,1.465,0.000
1621213639.186,-0.488,-35.645,-28.809,-0.977,0.000
1621213639.190,-13.184,-33.203,-34.668,-0.977,0.000
1621213639.194,-10.254,-34.180,-38.086,5.371,0.000
1621213639.198,-6.836,-38.574,-34.180,-0.488,0.000
1621213639.202,-10.742,-39.062,-33.203,-15.137,0.000
1621213639.205,-15.625,-34.180,-44.434,-23.438,0.000
1621213639.209,-7.812,-34.668,-39.062,-14.160,0.000
1621213639.213,-8.789,-34.668,-39.062,-18.555,0.000
1621213639.217,-28.809,-42.480,-41.504,-27.832,0.000
