timestamps,TP9,AF7,AF8,TP10,Right AUX
1621213375.639,-1.465,0.488,-115.234,-48.340,0.000
1621213375.643,18.555,4.395,-110.840,-43.945,0.000
1621213375.647,15.137,3.906,-112.793,-42.480,0.000
1621213375.650,31.250,-4.395,-117.676,-34.180,0.000
1621213375.654,29.785,9.277,-102.539,-26.367,0.000
1621213375.658,21.973,22.949,-102.051,-30.762,0.000
1621213375.662,25.391,13.184,-118.164,-24.414,0.000
1621213375.666,32.227,-0.488,-112.793,-25.391,0.000
1621213375.670,33.691,12.695,-110.352,-20.508,0.000
1621213375.674,28.320,8.789,-115.723,-8.301,0.000
1621213375.678,28.320,4.395,-116.699,-19.043,0.000
1621213375.682,20.508,17.578,-105.957,-9.766,0.000
1621213375.686,25.391,15.137,-100.586,-10.742,0.000
1621213375.690,32.227,16.113,-103.516,-20.508,0.000
1621213375.693,26.367,16.602,-96.680,-6.348,0.000
1621213375.697,35.645,16.113,-97.656,-1.953,0.000
1621213375.701,43.945,15.625,-101.562,-0.488,0.000
1621213375.705,41.992,6.348,-92.285,0.488,0.000
1621213375.709,59.082,14.160,-92.285,-5.859,0.000
1621213375.713,67.871,24.414,-95.215,1.465,0.000
1621213375.717,51.270,11.230,-92.285,13.672,0.000
1621213375.721,46.875,-7.324,-80.078,16.602,0.000
1621213375.725,51.758,12.207,-72.754,21.484,0.000
1621213375.729,53.711,17.578,-74.707,22.949,0.000
1621213375.732,68.359,-3.418,-77.637,24.902,0.000
1621213375.736,68.848,4.395,-73.730,21.484,0.000
1621213375.740,45.410,8.789,-72.754,10.742,0.000
1621213375.744,48.340,6.836,-77.148,5.859,0.000
1621213375.748,57.129,11.719,-75.195,10.254,0.000
1621213375.752,56.152,7.324,-67.383,17.090,0.000
1621213375.756,51.270,6.836,-52.734,19.043,0.000
1621213375.760,54.688,-4.395,-55.664,27.344,0.000
1621213375.764,58.105,-11.719,-61.523,38.086,0.000
1621213375.768,49.316,15.137,-60.547,20.996,0.000
1621213375.772,57.617,3.906,-59.082,10.742,0.000
1621213375.775,57.129,-10.742,-59.570,5.371,0.000
1621213375.779,41.504,16.602,-63.477,-3.906,0.000
1621213375.783,43.945,15.625,-61.523,8.301,0.000
1621213375.787,49.805,-1.465,-59.082,18.066,0.000
1621213375.791,44.922,2.930,-70.312,11.719,0.000
1621213375.795,42.480,-4.395,-63.965,13.672,0.000
1621213375.799,49.316,-10.254,-48.828,23.438,0.000
1621213375.803,61.523,-1.953,-55.176,17.090,0.000
1621213375.807,53.711,-1.465,-49.316,19.531,0.000
1621213375.811,52.734,-14.160,-42.969,18.066,0.000
1621213375.815,62.500,-9.766,-48.340,9.277,0.000
1621213375.818,44.434,-1.953,-53.223,6.348,0.000
1621213375.822,37.109,-20.996,-50.781,6.348,0.000
1621213375.826,49.805,-24.414,-45.410,8.301,0.000
1621213375.830,34.668,-14.160,-44.922,15.137,0.000
1621213375.834,14.648,-6.836,-53.223,3.418,0.000
1621213375.838,30.273,-3.418,-49.805,17.090,0.000
1621213375.842,31.738,-6.836,-46.387,11.719,0.000
1621213375.846,24.902,-10.254,-54.199,-5.859,0.000
1621213375.850,22.461,-8.789,-51.270,3.418,0.000
1621213375.854,19.531,-12.207,-50.293,-8.301,0.000
1621213375.857,24.902,-14.648,-50.293,-2.441,0.000
1621213375.861,22.949,-13.184,-43.945,1.953,0.000
1621213375.865,21.973,-12.207,-42.480,-11.230,0.000
1621213375.869,25.879,-13.672,-47.363,-1.465,0.000
1621213375.873,37.109,-16.113,-46.875,4.883,0.000
1621213375.877,25.879,-18.555,-53.711,7.812,0.000
1621213375.881,14.648,-16.113,-58.594,8.789,0.000
1621213375.885,22.949,-6.836,-46.875,-2.930,0.000
1621213375.889,30.762,-16.113,-44.922,4.883,0.000
1621213375.893,38.574,-12.695,-42.969,3.418,0.000
1621213375.897,23.926,-10.254,-38.086,2.441,0.000
1621213375.900,18.555,-18.066,-33.691,9.277,0.000
1621213375.904,19.043,-15.137,-34.180,14.160,0.000
1621213375.908,10.742,-20.020,-34.180,17.578,0.000
1621213375.912,6.836,-13.184,-35.645,1.953,0.000
1621213375.916,22.949,1.465,-33.691,-1.465,0.000
1621213375.920,24.414,-6.348,-35.645,3.906,0.000
1621213375.924,2.441,-26.367,-45.410,8.789,0.000
1621213375.928,5.371,-28.320,-45.410,6.348,0.000
1621213375.932,-5.859,-25.391,-43.457,-18.066,0.000
1621213375.936,-16.602,-21.973,-45.898,-19.531,0.000
1621213375.940,-6.836,-27.832,-44.434,0.488,0.000
1621213375.943,-0.977,-35.645,-40.039,5.859,0.000
1621213375.947,-6.348,-26.367,-42.480,-7.812,0.000
1621213375.951,-4.883,-18.066,-45.898,-6.836,0.000
1621213375.955,8.789,-21.484,-43.457,-5.859,0.000
1621213375.959,-2.930,-30.273,-45.898,-2.441,0.000
1621213375.963,-20.996,-25.879,-41.016,7.812,0.000
1621213375.967,0.000,-17.090,-40.527,6.836,0.000
1621213375.971,-2.930,-29.297,-41.504,1.953,0.000
1621213375.975,-9.277,-22.461,-47.363,-4.395,0.000
1621213375.979,-0.488,-19.043,-55.176,-3.418,0.000
1621213375.982,-2.930,-25.391,-47.852,-11.230,0.000
1621213375.986,-11.230,-20.020,-49.805,-10.742,0.000
1621213375.990,-11.719,-21.484,-52.734,-5.371,0.000
1621213375.994,-0.977,-33.203,-47.363,-4.395,0.000
1621213375.998,1.465,-30.273,-54.688,-5.859,0.000
1621213376.002,-1.465,-23.438,-60.547,-5.371,0.000
1621213376.006,2.441,-27.832,-62.012,4.395,0.000
1621213376.010,-8.301,-16.602,-64.453,-8.301,0.000
1621213376.014,-31.738,-7.324,-61.523,-24.414,0.000
1621213376.018,-28.809,-8.789,-57.617,-34.668,0.000
1621213376.022,-1.465,-19.531,-57.129,-26.855,0.000
1621213376.025,11.230,-28.320,-53.711,1.953,0.000
1621213376.029,-6.836,-27.832,-57.617,-8.789,0.000
1621213376.033,-24.902,-26.855,-59.570,-25.879,0.000
1621213376.037,-20.996,-27.832,-62.988,-20.996,0.000
1621213376.041,-10.254,-38.086,-61.523,-5.859,0.000
1621213376.045,-12.695,-34.180,-44.434,-9.277,0.000
1621213376.049,1.465,-15.137,-48.828,-23.926,0.000
1621213376.053,-2.441,-13.672,-51.270,-6.836,0.000
1621213376.057,-7.324,-25.879,-48.828,4.883,0.000
1621213376.061,-2.930,-21.484,-47.363,-6.348,0.000
1621213376.065,-2.441,-19.531,-42.969,5.371,0.000
1621213376.068,1.465,-19.043,-39.551,5.371,0.000
1621213376.072,-8.789,-21.484,-36.133,-5.859,0.000
1621213376.076,1.465,-25.391,-39.551,2.441,0.000
1621213376.080,-10.254,-25.879,-40.527,0.000,0.000
1621213376.084,-20.020,-32.715,-41.504,-12.695,0.000
1621213376.088,-8.789,-35.645,-44.434,-4.395,0.000
1621213376.092,-20.996,-40.039,-43.457,9.277,0.000
1621213376.096,-10.254,-26.367,-46.387,7.324,0.000
1621213376.100,-3.418,-28.809,-49.316,-10.254,0.000
1621213376.104,-14.648,-46.875,-50.293,-20.020,0.000
1621213376.107,-13.184,-21.973,-45.410,-1.465,0.000
1621213376.111,-14.648,-13.672,-39.551,2.930,0.000
1621213376.115,0.488,-24.414,-45.410,-2.930,0.000
1621213376.119,6.836,-28.809,-54.199,3.418,0.000
1621213376.123,0.488,-33.691,-50.293,-1.953,0.000
1621213376.127,4.883,-31.738,-43.457,-0.488,0.000
1621213376.131,-6.836,-27.344,-43.457,4.395,0.000
1621213376.135,-5.371,-32.715,-41.504,-5.371,0.000
1621213376.139,-1.465,-44.434,-36.621,6.348,0.000
1621213376.143,-5.859,-38.086,-34.180,19.043,0.000
1621213376.147,5.371,-25.879,-31.250,13.672,0.000
1621213376.150,26.855,-26.367,-29.785,23.926,0.000
1621213376.154,11.230,-25.391,-37.109,19.531,0.000
1621213376.158,-1.465,-14.160,-36.133,-2.441,0.000
1621213376.162,6.348,-21.484,-31.250,-0.977,0.000
1621213376.166,14.160,-22.949,-35.156,2.930,0.000
1621213376.170,10.254,-22.949,-35.156,5.371,0.000
1621213376.174,9.277,-35.645,-35.156,20.996,0.000
1621213376.178,12.207,-16.602,-31.738,20.020,0.000
1621213376.182,2.441,-9.766,-27.832,5.371,0.000
1621213376.186,1.953,-17.578,-30.762,11.719,0.000
1621213376.190,33.203,-13.672,-40.527,23.926,0.000
1621213376.193,44.922,-32.227,-41.992,41.992,0.000
1621213376.197,19.531,-27.344,-26.367,33.203,0.000
1621213376.201,9.766,-2.441,-23.926,16.602,0.000
1621213376.205,16.602,-13.184,-27.344,20.996,0.000
1621213376.209,32.715,-32.227,-31.738,19.043,0.000
1621213376.213,26.855,-31.250,-40.039,13.184,0.000
1621213376.217,15.137,-33.691,-32.227,9.277,0.000
1621213376.221,21.973,-33.203,-32.227,26.367,0.000
1621213376.225,20.508,-12.207,-42.480,35.645,0.000
1621213376.229,19.043,-14.648,-30.273,23.926,0.000
1621213376.232,24.902,-29.297,-26.367,16.602,0.000
1621213376.236,41.992,-26.855,-39.551,20.020,0.000
1621213376.240,30.273,-21.973,-31.250,19.043,0.000
1621213376.244,16.602,-25.391,-22.949,21.973,0.000
1621213376.248,39.551,-24.414,-26.367,22.949,0.000
1621213376.252,41.016,-33.691,-29.785,22.461,0.000
1621213376.256,3.906,-28.809,-33.691,25.879,0.000
1621213376.260,-19.043,-10.742,-36.621,12.695,0.000
1621213376.264,-8.301,-11.719,-37.109,12.207,0.000
1621213376.268,-0.488,-10.254,-41.992,21.973,0.000
1621213376.272,-9.766,-15.137,-42.969,3.418,0.000
1621213376.275,-1.953,-46.387,-33.691,5.859,0.000
1621213376.279,12.695,-43.457,-35.645,33.691,0.000
1621213376.283,0.488,-15.625,-47.852,11.230,0.000
1621213376.287,-17.578,-29.297,-43.457,-19.043,0.000
1621213376.291,-25.879,-39.062,-27.832,-7.812,0.000
1621213376.295,-8.789,-22.461,-38.086,4.883,0.000
1621213376.299,1.953,-29.297,-49.316,-4.883,0.000
1621213376.303,2.441,-40.527,-37.598,-8.301,0.000
1621213376.307,0.977,-17.578,-34.668,-2.930,0.000
1621213376.311,0.977,-0.977,-48.340,0.977,0.000
1621213376.315,-4.883,-5.859,-41.016,-5.859,0.000
1621213376.318,-15.625,-21.484,-33.691,-17.090,0.000
1621213376.322,-11.230,-38.574,-38.574,-4.395,0.000
1621213376.326,-1.465,-30.273,-38.574,-3.906,0.000
1621213376.330,-13.184,-11.230,-40.527,-20.508,0.000
1621213376.334,-30.762,-10.742,-41.016,-20.996,0.000
1621213376.338,-11.719,-11.230,-45.898,-9.766,0.000
1621213376.342,-14.160,-12.207,-48.340,-10.254,0.000
1621213376.346,-40.039,-21.484,-46.387,-26.367,0.000
1621213376.350,-32.227,-26.855,-42.480,-18.066,0.000
1621213376.354,-35.156,-22.949,-42.969,-10.254,0.000
1621213376.357,-34.668,-20.508,-46.387,-13.672,0.000
1621213376.361,-8.789,-22.949,-39.551,-0.488,0.000
1621213376.365,-22.461,-22.461,-42.480,-4.883,0.000
1621213376.369,-28.809,-18.066,-46.875,-7.324,0.000
1621213376.373,-14.648,-13.184,-43.945,-7.812,0.000
1621213376.377,-35.156,-16.602,-46.875,-31.738,0.000
1621213376.381,-42.969,-29.785,-45.898,-41.504,0.000
1621213376.385,-37.598,-28.809,-45.410,-36.621,0.000
1621213376.389,-35.156,-21.484,-48.340,-27.832,0.000
1621213376.393,-43.457,-25.391,-51.270,-47.852,0.000
1621213376.397,-39.551,-30.273,-58.594,-56.641,0.000
1621213376.400,-38.574,-31.738,-61.035,-38.086,0.000
1621213376.404,-53.223,-27.344,-51.758,-42.969,0.000
1621213376.408,-61.523,-28.809,-44.922,-47.363,0.000
1621213376.412,-52.734,-31.250,-45.410,-42.969,0.000
1621213376.416,-40.039,-26.367,-42.969,-40.527,0.000
1621213376.420,-29.785,-26.367,-47.852,-41.504,0.000
1621213376.424,-36.133,-24.902,-48.340,-31.738,0.000
1621213376.428,-45.410,-27.344,-51.270,-23.926,0.000
1621213376.432,-42.969,-35.645,-54.688,-34.180,0.000
1621213376.436,-44.922,-38.574,-43.945,-41.016,0.000
1621213376.440,-39.551,-28.809,-42.480,-38.086,0.000
1621213376.443,-22.461,-21.973,-43.945,-22.461,0.000
1621213376.447,-23.438,-29.297,-42.969,-26.855,0.000
1621213376.451,-32.715,-36.621,-43.945,-45.898,0.000
1621213376.455,-20.508,-34.668,-41.992,-34.180,0.000
1621213376.459,-33.203,-29.297,-37.598,-13.672,0.000
1621213376.463,-59.082,-19.531,-37.109,-12.207,0.000
1621213376.467,-62.988,-20.996,-40.527,-17.578,0.000
1621213376.471,-40.527,-23.438,-41.504,-24.902,0.000
1621213376.475,-27.344,-31.250,-41.016,-26.855,0.000
1621213376.479,-31.738,-34.180,-42.969,-25.391,0.000
1621213376.483,-37.598,-25.391,-40.039,-30.273,0.000
1621213376.486,-48.828,-20.020,-37.109,-22.949,0.000
1621213376.490,-44.922,-25.391,-44.922,-18.066,0.000
1621213376.494,-42.480,-31.738,-44.922,-17.090,0.000
1621213376.498,-41.992,-31.250,-36.133,-36.133,0.000
1621213376.502,-40.039,-37.109,-36.621,-41.016,0.000
1621213376.506,-29.297,-31.250,-38.086,-16.602,0.000
1621213376.510,-10.254,-22.461,-35.156,-20.996,0.000
1621213376.514,-21.973,-29.297,-37.109,-33.203,0.000
1621213376.518,-51.270,-39.551,-36.621,-51.270,0.000
1621213376.522,-45.898,-27.344,-41.016,-47.852,0.000
1621213376.525,-30.273,-16.602,-50.293,-32.715,0.000
1621213376.529,-54.688,-33.691,-49.316,-43.945,0.000
1621213376.533,-55.176,-36.621,-48.828,-37.109,0.000
1621213376.537,-30.762,-19.531,-54.688,-44.922,0.000
1621213376.541,-21.484,-26.855,-45.898,-37.109,0.000
1621213376.545,-40.039,-30.762,-38.574,-13.184,0.000
1621213376.549,-66.406,-41.992,-42.480,-31.250,0.000
1621213376.553,-51.758,-45.898,-36.133,-26.367,0.000
1621213376.557,-23.438,-23.438,-31.250,-14.648,0.000
1621213376.561,-39.062,-21.973,-31.738,-25.879,0.000
1621213376.565,-32.715,-28.320,-29.297,-20.996,0.000
1621213376.568,-30.762,-26.855,-36.621,-36.133,0.000
1621213376.572,-41.016,-33.203,-41.016,-36.133,0.000
1621213376.576,-28.320,-32.715,-35.645,-21.973,0.000
1621213376.580,-52.734,-28.320,-30.762,-37.109,0.000
1621213376.584,-51.758,-29.785,-27.344,-30.273,0.000
1621213376.588,-32.715,-32.227,-31.250,-25.391,0.000
1621213376.592,-42.480,-40.527,-35.645,-23.926,0.000
1621213376.596,-46.875,-34.180,-36.133,-19.043,0.000
1621213376.600,-31.250,-26.367,-39.062,-33.691,0.000
1621213376.604,-24.902,-38.574,-35.156,-25.879,0.000
1621213376.607,-15.625,-43.457,-28.809,-8.789,0.000
1621213376.611,-16.602,-29.785,-33.691,-1.953,0.000
1621213376.615,-30.273,-24.414,-37.598,-8.789,0.000
1621213376.619,-30.273,-26.367,-38.086,-25.391,0.000
1621213376.623,-20.508,-18.066,-39.551,-24.902,0.000
1621213376.627,-22.949,-13.672,-37.109,-21.973,0.000
1621213376.631,-20.996,-19.531,-38.086,-20.508,0.000
1621213376.635,-10.254,-32.227,-40.039,-26.855,0.000
1621213376.639,-5.371,-58.594,-38.086,-26.855,0.000
1621213376.643,-3.418,-46.875,-41.504,-22.461,0.000
1621213376.647,-11.719,-22.461,-42.969,-18.066,0.000
1621213376.650,-13.184,-22.949,-35.645,-19.531,0.000
1621213376.654,-7.324,-27.832,-31.250,-12.207,0.000
1621213376.658,-8.301,-42.969,-29.297,-9.277,0.000
1621213376.662,-18.555,-41.016,-32.715,-26.855,0.000
1621213376.666,-10.254,-23.926,-36.621,-28.809,0.000
1621213376.670,-6.836,-31.250,-35.156,-21.484,0.000
1621213376.674,-24.414,-45.898,-39.062,-14.648,0.000
1621213376.678,-39.062,-34.668,-39.551,-17.578,0.000
1621213376.682,-30.273,-29.297,-37.598,-17.090,0.000
1621213376.686,-32.715,-37.598,-38.086,-18.555,0.000
1621213376.690,-33.203,-49.805,-40.039,-15.625,0.000
1621213376.693,-11.230,-40.527,-39.062,0.488,0.000
1621213376.697,-33.203,-24.414,-47.363,-26.367,0.000
1621213376.701,-44.434,-39.062,-52.734,-46.875,0.000
1621213376.705,-29.297,-39.551,-43.457,-36.133,0.000
1621213376.709,-27.832,-36.133,-39.551,-37.109,0.000
1621213376.713,-30.273,-41.504,-37.598,-23.438,0.000
1621213376.717,-40.527,-31.738,-34.180,-13.672,0.000
1621213376.721,-41.992,-13.672,-38.086,-11.230,0.000
1621213376.725,-24.414,-24.414,-40.039,10.254,0.000
1621213376.729,-40.039,-25.391,-44.922,1.953,0.000
1621213376.732,-48.828,-15.625,-43.945,2.930,0.000
1621213376.736,-23.926,-16.113,-34.180,14.160,0.000
1621213376.740,-20.996,-24.414,-31.738,2.441,0.000
1621213376.744,-15.625,-31.738,-38.086,-10.742,0.000
1621213376.748,-11.719,-21.484,-47.363,-46.387,0.000
1621213376.752,-30.762,-22.949,-41.016,-46.875,0.000
1621213376.756,-19.531,-29.785,-39.551,-28.320,0.000
1621213376.760,-15.137,-18.066,-40.527,-48.340,0.000
1621213376.764,-27.832,-2.441,-37.598,-65.430,0.000
1621213376.768,-18.066,-21.973,-45.410,-46.387,0.000
1621213376.772,-29.785,-31.250,-46.387,-49.316,0.000
1621213376.775,-40.039,-16.602,-44.922,-43.945,0.000
1621213376.779,-21.484,-26.855,-45.898,-24.414,0.000
1621213376.783,-25.391,-35.156,-42.480,-33.203,0.000
1621213376.787,-26.855,-32.227,-41.016,-29.785,0.000
1621213376.791,-20.020,-36.133,-30.762,-21.484,0.000
1621213376.795,-35.645,-26.855,-28.809,-5.371,0.000
1621213376.799,-26.367,-20.508,-33.203,3.906,0.000
1621213376.803,6.348,-38.086,-31.250,1.465,0.000
1621213376.807,-5.859,-38.086,-31.738,10.742,0.000
1621213376.811,-2.930,-32.715,-31.738,-0.488,0.000
1621213376.815,-4.395,-39.062,-27.832,-15.137,0.000
1621213376.818,-17.090,-21.484,-32.227,-11.230,0.000
1621213376.822,-29.785,-18.066,-38.086,-5.371,0.000
1621213376.826,-28.809,-38.574,-34.668,-11.230,0.000
1621213376.830,-29.785,-35.156,-32.227,-18.555,0.000
1621213376.834,-48.828,-29.297,-30.273,0.000,0.000
1621213376.838,-17.090,-31.250,-29.297,9.277,0.000
1621213376.842,-24.414,-34.180,-27.344,2.930,0.000
1621213376.846,-33.691,-31.250,-22.461,2.441,0.000
1621213376.850,-8.301,-24.414,-24.414,1.465,0.000
1621213376.854,-40.527,-34.668,-36.133,-10.742,0.000
1621213376.857,-43.457,-37.598,-37.598,-12.695,0.000
1621213376.861,-18.066,-40.527,-28.809,-12.207,0.000
1621213376.865,-26.367,-31.738,-30.273,-19.531,0.000
1621213376.869,-12.207,-29.297,-30.273,-9.766,0.000
1621213376.873,-11.230,-38.086,-26.367,-12.207,0.000
1621213376.877,-26.367,-39.551,-30.273,-5.859,0.000
1621213376.881,-30.273,-35.645,-31.738,2.930,0.000
1621213376.885,-29.785,-25.391,-28.809,-6.836,0.000
1621213376.889,-28.809,-24.902,-32.227,-13.672,0.000
1621213376.893,-30.762,-27.832,-36.621,-17.090,0.000
1621213376.897,-16.602,-33.691,-37.109,-20.020,0.000
1621213376.900,-20.020,-44.434,-36.621,-27.344,0.000
1621213376.904,-7.812,-31.738,-62.500,-15.137,0.000
1621213376.908,-6.836,-17.090,-72.754,-3.906,0.000
1621213376.912,-17.578,-30.273,-50.293,-6.836,0.000
1621213376.916,-8.301,-41.016,-31.738,5.371,0.000
1621213376.920,-12.695,-47.363,-28.809,10.742,0.000
1621213376.924,-31.250,-50.781,-30.273,-2.441,0.000
1621213376.928,-37.598,-39.062,-24.902,-17.090,0.000
1621213376.932,-45.898,-47.363,-27.344,-14.160,0.000
1621213376.936,-34.668,-41.504,-27.344,-8.789,0.000
1621213376.940,-20.508,-42.969,-23.438,-1.953,0.000
1621213376.943,-43.945,-43.945,-24.902,-10.742,0.000
1621213376.947,-37.598,-51.758,-32.227,-27.832,0.000
1621213376.951,-49.805,-71.289,-28.320,-28.320,0.000
1621213376.955,-67.871,-63.965,-11.230,-14.648,0.000
1621213376.959,-68.848,-58.105,-18.555,-17.578,0.000
1621213376.963,-60.059,-66.895,-34.668,-29.785,0.000
1621213376.967,-44.922,-71.289,-27.832,-30.273,0.000
1621213376.971,-79.590,-72.754,-22.461,-29.785,0.000
1621213376.975,-97.168,-76.172,-23.926,-27.344,0.000
1621213376.979,-81.055,-75.195,-15.625,-29.297,0.000
1621213376.982,-84.473,-75.684,-10.254,-31.738,0.000
1621213376.986,-90.820,-77.637,-13.184,-19.531,0.000
1621213376.990,-79.590,-82.520,-12.695,-9.277,0.000
1621213376.994,-85.938,-84.473,0.000,-22.949,0.000
1621213376.998,-93.750,-81.543,4.395,-31.250,0.000
1621213377.002,-74.219,-86.426,2.930,-19.531,0.000
1621213377.006,-79.102,-92.773,5.371,-2.441,0.000
1621213377.010,-88.379,-91.797,13.184,3.418,0.000
1621213377.014,-89.355,-84.961,22.949,-16.602,0.000
1621213377.018,-101.562,-80.078,29.785,-18.066,0.000
1621213377.022,-95.215,-80.078,27.832,-3.418,0.000
1621213377.025,-86.426,-86.914,28.320,-1.953,0.000
1621213377.029,-84.961,-88.867,39.551,9.766,0.000
1621213377.033,-73.242,-80.078,40.527,15.137,0.000
1621213377.037,-57.129,-80.566,34.668,4.883,0.000
1621213377.041,-60.059,-85.449,39.062,12.207,0.000
1621213377.045,-81.055,-86.914,42.480,8.301,0.000
1621213377.049,-78.613,-87.402,34.180,4.395,0.000
1621213377.053,-72.754,-81.543,37.598,25.391,0.000
1621213377.057,-88.867,-72.266,55.176,33.203,0.000
1621213377.061,-82.031,-80.566,50.293,40.039,0.000
1621213377.065,-71.777,-81.543,50.293,30.762,0.000
1621213377.068,-81.055,-72.754,60.547,20.996,0.000
1621213377.072,-68.848,-75.684,58.105,39.551,0.000
1621213377.076,-59.082,-69.336,54.688,43.945,0.000
1621213377.080,-61.523,-64.453,59.570,29.785,0.000
1621213377.084,-68.848,-68.359,58.105,18.066,0.000
1621213377.088,-51.758,-74.707,53.223,15.137,0.000
1621213377.092,-32.227,-76.172,60.547,32.715,0.000
1621213377.096,-48.340,-76.660,63.965,31.738,0.000
1621213377.100,-50.781,-86.426,62.988,24.902,0.000
1621213377.104,-53.223,-86.914,69.336,29.297,0.000
1621213377.107,-62.012,-81.543,62.500,21.484,0.000
1621213377.111,-72.754,-69.824,56.152,12.695,0.000
1621213377.115,-67.871,-64.941,67.383,24.414,0.000
1621213377.119,-48.828,-73.242,73.730,23.926,0.000
1621213377.123,-45.410,-65.430,71.289,23.438,0.000
1621213377.127,-57.617,-67.871,73.242,41.504,0.000
1621213377.131,-62.988,-80.078,70.801,18.066,0.000
1621213377.135,-35.645,-77.637,63.965,3.418,0.000
1621213377.139,-14.648,-70.801,57.129,20.020,0.000
1621213377.143,-28.809,-76.172,55.176,31.250,0.000
1621213377.147,-38.574,-76.660,64.453,39.062,0.000
1621213377.150,-42.480,-73.242,64.941,29.785,0.000
1621213377.154,-32.227,-64.941,61.035,27.344,0.000
1621213377.158,-35.645,-67.383,59.082,32.715,0.000
1621213377.162,-21.484,-73.730,56.641,18.555,0.000
1621213377.166,-12.695,-70.312,63.965,27.344,0.000
1621213377.170,-32.715,-66.895,62.500,44.434,0.000
1621213377.174,-35.156,-61.523,57.617,43.945,0.000
1621213377.178,-31.738,-64.453,59.570,28.320,0.000
1621213377.182,-17.090,-65.918,55.664,23.438,0.000
1621213377.186,-33.203,-66.895,49.805,19.043,0.000
1621213377.190,-20.020,-66.895,51.270,42.969,0.000
1621213377.193,11.719,-64.941,46.387,72.266,0.000
1621213377.197,-42.480,-53.223,45.410,37.109,0.000
1621213377.201,-76.172,-40.039,45.898,21.973,0.000
1621213377.205,-45.898,-39.062,40.527,32.227,0.000
1621213377.209,-33.691,-43.457,36.621,27.344,0.000
1621213377.213,-26.367,-42.480,32.715,23.926,0.000
1621213377.217,-27.344,-41.504,28.809,26.855,0.000
1621213377.221,-29.297,-42.480,28.320,21.973,0.000
1621213377.225,-19.043,-46.875,31.738,19.043,0.000
1621213377.229,-16.113,-48.828,24.414,25.879,0.000
1621213377.233,-17.090,-53.711,21.484,31.738,0.000
1621213377.236,-4.395,-56.641,20.996,31.250,0.000
1621213377.240,-3.418,-47.852,6.836,41.992,0.000
1621213377.244,-13.184,-43.457,2.441,56.641,0.000
1621213377.248,-7.324,-54.199,8.789,45.898,0.000
1621213377.252,-1.953,-52.734,5.859,28.320,0.000
1621213377.256,-33.691,-41.016,0.488,22.949,0.000
1621213377.260,-37.598,-41.504,-10.742,18.066,0.000
1621213377.264,-13.672,-43.457,-17.578,12.695,0.000
1621213377.268,-22.461,-50.293,-17.090,9.766,0.000
1621213377.272,-29.785,-46.387,-12.207,19.531,0.000
1621213377.275,-37.109,-49.316,-14.160,19.043,0.000
1621213377.279,-20.020,-46.875,-20.020,3.906,0.000
1621213377.283,-3.418,-37.598,-10.742,5.371,0.000
1621213377.287,-6.348,-35.156,-8.301,1.953,0.000
1621213377.291,-19.531,-41.016,-14.648,2.441,0.000
1621213377.295,-7.324,-41.504,-14.648,14.648,0.000
1621213377.299,-0.488,-36.133,-14.160,11.230,0.000
1621213377.303,-4.395,-58.105,-10.742,14.648,0.000
1621213377.307,0.488,-60.059,-6.348,19.531,0.000
1621213377.311,-18.066,-43.945,-6.836,10.254,0.000
1621213377.315,-20.508,-46.875,-17.578,7.812,0.000
1621213377.318,-20.508,-53.223,-19.531,-14.648,0.000
1621213377.322,-31.250,-51.758,-21.973,-18.066,0.000
1621213377.326,-24.414,-49.316,-23.926,0.488,0.000
1621213377.330,-10.742,-52.734,-27.344,-1.465,0.000
1621213377.334,-13.184,-58.594,-37.598,-14.648,0.000
1621213377.338,-29.785,-55.664,-41.504,-27.832,0.000
1621213377.342,-33.691,-60.547,-53.223,-25.879,0.000
1621213377.346,-26.855,-71.777,-42.480,-25.391,0.000
1621213377.350,-41.992,-61.035,-30.273,-25.879,0.000
1621213377.354,-44.922,-53.223,-40.039,-20.996,0.000
1621213377.357,-39.062,-51.758,-38.086,-24.902,0.000
1621213377.361,-43.457,-50.781,-34.668,-20.508,0.000
1621213377.365,-62.988,-57.129,-38.574,-33.203,0.000
1621213377.369,-55.664,-60.059,-47.363,-47.852,0.000
1621213377.373,-56.152,-62.012,-55.176,-41.016,0.000
1621213377.377,-59.082,-60.547,-52.734,-39.551,0.000
1621213377.381,-34.668,-62.988,-57.129,-40.527,0.000
1621213377.385,-47.852,-65.430,-52.246,-45.898,0.000
1621213377.389,-66.406,-67.383,-42.480,-28.809,0.000
1621213377.393,-39.551,-65.918,-48.340,-5.859,0.000
1621213377.397,-25.391,-60.059,-42.480,-29.297,0.000
1621213377.400,-40.527,-58.105,-44.922,-47.852,0.000
1621213377.404,-42.969,-58.594,-55.664,-40.039,0.000
1621213377.408,-39.062,-60.059,-46.875,-37.109,0.000
1621213377.412,-23.438,-59.570,-51.758,-43.457,0.000
1621213377.416,-37.109,-58.105,-58.105,-50.781,0.000
1621213377.420,-45.898,-51.270,-50.293,-54.199,0.000
1621213377.424,-30.762,-43.457,-60.059,-39.551,0.000
1621213377.428,-31.250,-52.246,-63.477,-37.598,0.000
1621213377.432,-49.316,-58.105,-51.270,-40.039,0.000
1621213377.436,-46.875,-51.270,-56.152,-32.227,0.000
1621213377.440,-36.621,-45.898,-56.641,-22.949,0.000
1621213377.443,-43.945,-49.316,-56.152,-23.438,0.000
1621213377.447,-44.922,-54.688,-62.500,-35.645,0.000
1621213377.451,-40.039,-63.477,-66.895,-41.504,0.000
1621213377.455,-59.082,-61.035,-63.477,-47.852,0.000
1621213377.459,-57.617,-55.176,-58.594,-43.945,0.000
1621213377.463,-49.805,-57.617,-65.918,-41.992,0.000
1621213377.467,-56.641,-50.781,-73.242,-57.617,0.000
1621213377.471,-59.570,-46.387,-64.453,-49.316,0.000
1621213377.475,-43.945,-44.434,-53.711,-28.809,0.000
1621213377.479,-34.180,-54.688,-60.547,-40.527,0.000
1621213377.483,-37.598,-70.312,-64.453,-42.969,0.000
1621213377.486,-36.621,-66.895,-51.758,-27.832,0.000
1621213377.490,-41.504,-41.992,-65.918,-42.480,0.000
1621213377.494,-28.809,-39.062,-85.938,-61.523,0.000
1621213377.498,-41.504,-45.410,-94.727,-66.406,0.000
1621213377.502,-57.617,-45.898,-111.328,-65.430,0.000
1621213377.506,-55.176,-44.434,-112.305,-79.590,0.000
1621213377.510,-63.965,-40.039,-122.070,-87.402,0.000
1621213377.514,-54.199,-49.316,-130.371,-81.543,0.000
1621213377.518,-62.500,-43.945,-145.020,-84.473,0.000
1621213377.522,-91.309,-43.945,-157.715,-102.051,0.000
1621213377.525,-74.707,-44.434,-153.809,-95.703,0.000
1621213377.529,-73.242,-51.270,-164.062,-96.191,0.000
1621213377.533,-93.750,-50.781,-164.062,-102.539,0.000
1621213377.537,-76.660,-41.016,-162.109,-89.844,0.000
1621213377.541,-70.312,-48.340,-156.250,-94.727,0.000
1621213377.545,-84.961,-55.176,-149.902,-85.449,0.000
1621213377.549,-79.590,-44.922,-140.137,-75.684,0.000
1621213377.553,-66.406,-44.434,-141.113,-84.473,0.000
1621213377.557,-62.988,-58.105,-145.996,-89.355,0.000
1621213377.561,-63.477,-58.594,-142.578,-80.566,0.000
1621213377.565,-59.082,-47.363,-142.578,-77.637,0.000
1621213377.568,-66.895,-53.711,-131.836,-91.309,0.000
1621213377.572,-56.152,-55.176,-126.953,-83.984,0.000
1621213377.576,-32.227,-41.016,-130.859,-75.195,0.000
1621213377.580,-38.574,-45.898,-135.742,-85.449,0.000
1621213377.584,-60.547,-44.922,-126.953,-79.102,0.000
1621213377.588,-56.152,-47.852,-119.141,-63.477,0.000
1621213377.592,-37.598,-52.734,-114.258,-46.875,0.000
1621213377.596,-33.691,-47.852,-112.793,-37.598,0.000
1621213377.600,-35.645,-50.293,-112.793,-34.668,0.000
1621213377.604,-26.367,-46.387,-104.492,-35.156,0.000
1621213377.608,-19.531,-39.062,-93.262,-27.832,0.000
1621213377.611,-30.762,-35.156,-94.727,-22.949,0.000
1621213377.615,-27.344,-32.715,-93.750,-26.367,0.000
1621213377.619,-26.367,-32.227,-95.215,-30.762,0.000
1621213377.623,-17.578,-34.180,-95.703,-32.715,0.000
1621213377.627,-10.742,-35.156,-89.355,-36.621,0.000
1621213377.631,-14.648,-45.410,-89.844,-52.734,0.000
1621213377.635,-31.738,-48.828,-90.332,-50.781,0.000
1621213377.639,-54.199,-38.086,-91.309,-34.180,0.000
1621213377.643,-34.668,-33.203,-91.797,-35.645,0.000
1621213377.647,-30.762,-42.480,-94.727,-45.898,0.000
1621213377.650,-47.363,-48.828,-85.938,-51.758,0.000
1621213377.654,-44.922,-52.734,-82.031,-56.152,0.000
1621213377.658,-38.086,-51.758,-87.402,-46.387,0.000
1621213377.662,-23.438,-29.785,-85.449,-37.598,0.000
1621213377.666,-41.992,-30.762,-78.613,-42.969,0.000
1621213377.670,-42.480,-39.551,-76.172,-53.711,0.000
1621213377.674,-28.320,-35.156,-79.102,-56.152,0.000
1621213377.678,-28.320,-33.691,-77.637,-40.527,0.000
1621213377.682,-16.113,-32.227,-83.496,-37.598,0.000
1621213377.686,-37.598,-32.715,-80.078,-40.039,0.000
1621213377.690,-44.434,-36.133,-69.824,-29.785,0.000
1621213377.693,-14.648,-39.551,-72.266,-43.945,0.000
1621213377.697,-14.648,-45.898,-72.754,-57.129,0.000
1621213377.701,-41.992,-54.199,-73.242,-57.129,0.000
1621213377.705,-64.453,-48.828,-76.172,-56.152,0.000
1621213377.709,-62.012,-37.598,-76.660,-53.711,0.000
1621213377.713,-55.664,-34.180,-73.242,-42.480,0.000
1621213377.717,-60.547,-36.133,-70.801,-52.246,0.000
1621213377.721,-45.898,-36.621,-68.848,-53.223,0.000
1621213377.725,-42.480,-41.016,-62.500,-43.457,0.000
1621213377.729,-47.852,-41.992,-53.711,-46.875,0.000
1621213377.732,-46.387,-31.738,-54.688,-50.781,0.000
1621213377.736,-61.523,-32.715,-64.941,-73.730,0.000
1621213377.740,-65.918,-43.457,-61.523,-82.520,0.000
1621213377.744,-59.082,-45.898,-46.875,-77.148,0.000
1621213377.748,-83.984,-59.570,-44.434,-92.285,0.000
1621213377.752,-94.727,-69.824,-46.387,-107.422,0.000
1621213377.756,-106.445,-62.012,-37.109,-115.723,0.000
1621213377.760,-111.328,-45.410,-4.395,-106.445,0.000
1621213377.764,-124.512,-44.434,4.395,-109.863,0.000
1621213377.768,-151.855,-60.547,-11.719,-143.555,0.000
1621213377.772,-180.664,-43.945,-20.996,-178.223,0.000
1621213377.775,-204.102,-25.879,-15.625,-206.543,0.000
1621213377.779,-217.285,-31.250,-14.648,-234.375,0.000
1621213377.783,-237.793,-26.855,-27.832,-250.000,0.000
1621213377.787,-263.184,5.371,-28.809,-271.484,0.000
1621213377.791,-279.785,12.695,-36.133,-297.363,0.000
1621213377.795,-290.039,12.207,-53.711,-292.480,0.000
1621213377.799,-289.551,26.855,-68.848,-303.223,0.000
1621213377.803,-271.484,35.156,-70.801,-315.430,0.000
1621213377.807,-286.133,48.340,-88.867,-318.359,0.000
1621213377.811,-281.738,40.527,-117.188,-299.805,0.000
1621213377.815,-257.324,48.828,-120.605,-290.039,0.000
1621213377.818,-244.629,59.570,-123.047,-287.109,0.000
1621213377.822,-221.680,54.199,-118.652,-256.836,0.000
1621213377.826,-192.383,62.500,-130.859,-246.582,0.000
1621213377.830,-172.852,58.105,-154.297,-229.004,0.000
1621213377.834,-147.949,54.199,-151.855,-187.988,0.000
1621213377.838,-124.023,41.504,-158.691,-168.945,0.000
1621213377.842,-81.543,23.926,-165.527,-125.977,0.000
1621213377.846,-63.477,31.738,-161.621,-97.656,0.000
1621213377.850,-52.246,23.438,-172.363,-92.285,0.000
1621213377.854,-11.230,19.531,-176.270,-74.219,0.000
1621213377.857,-13.672,19.531,-184.082,-75.684,0.000
1621213377.861,3.418,-0.977,-181.641,-31.250,0.000
1621213377.865,23.926,-3.418,-173.340,-5.371,0.000
1621213377.869,16.602,-3.906,-177.246,-25.391,0.000
1621213377.873,49.316,-14.160,-166.504,-6.836,0.000
1621213377.877,64.453,-24.902,-166.504,14.648,0.000
1621213377.881,57.617,-19.043,-169.434,14.648,0.000
1621213377.885,56.152,-17.090,-156.250,8.789,0.000
1621213377.889,65.430,-39.062,-144.043,9.766,0.000
1621213377.893,77.637,-48.828,-145.508,30.762,0.000
1621213377.897,75.195,-34.180,-146.484,42.480,0.000
1621213377.900,76.172,-36.621,-134.766,40.039,0.000
1621213377.904,75.195,-36.133,-124.023,41.992,0.000
1621213377.908,80.566,-30.273,-119.141,41.504,0.000
1621213377.912,86.914,-38.086,-117.188,42.969,0.000
1621213377.916,83.984,-40.039,-113.770,42.480,0.000
1621213377.920,73.242,-41.504,-113.281,47.852,0.000
1621213377.924,83.008,-44.434,-119.629,42.969,0.000
1621213377.928,80.566,-39.551,-109.863,37.598,0.000
1621213377.932,66.406,-39.062,-95.703,47.363,0.000
1621213377.936,64.453,-42.480,-97.168,52.734,0.000
1621213377.940,68.359,-62.012,-98.145,52.734,0.000
1621213377.943,78.613,-61.035,-87.402,62.012,0.000
1621213377.947,84.473,-36.621,-83.008,64.453,0.000
1621213377.951,74.219,-27.832,-75.684,56.152,0.000
1621213377.955,80.078,-13.672,-75.195,61.523,0.000
1621213377.959,76.172,-16.113,-77.148,62.988,0.000
1621213377.963,67.871,-30.273,-84.473,53.223,0.000
1621213377.967,64.453,-37.109,-82.520,50.781,0.000
1621213377.971,69.824,-38.574,-68.359,45.410,0.000
1621213377.975,74.219,-41.504,-64.941,47.363,0.000
1621213377.979,65.430,-38.574,-61.523,62.988,0.000
1621213377.983,69.824,-35.156,-65.430,52.246,0.000
1621213377.986,57.617,-45.410,-65.918,30.273,0.000
1621213377.990,50.781,-42.969,-60.547,43.945,0.000
1621213377.994,58.105,-38.574,-56.152,52.246,0.000
1621213377.998,29.297,-29.785,-59.082,33.203,0.000
1621213378.002,28.809,-25.391,-65.430,33.203,0.000
1621213378.006,41.504,-36.621,-63.965,34.668,0.000
1621213378.010,25.879,-36.621,-55.664,30.762,0.000
1621213378.014,37.109,-27.832,-51.270,26.367,0.000
1621213378.018,39.062,-28.809,-56.641,11.230,0.000
1621213378.022,27.344,-34.668,-66.406,6.348,0.000
1621213378.025,25.879,-33.691,-64.941,12.207,0.000
1621213378.029,25.391,-26.367,-61.523,9.766,0.000
1621213378.033,23.438,-32.715,-66.895,0.977,0.000
1621213378.037,22.949,-32.227,-61.523,5.859,0.000
1621213378.041,29.297,-29.297,-59.570,19.043,0.000
1621213378.045,24.414,-43.945,-59.570,16.113,0.000
1621213378.049,22.461,-41.016,-52.246,-0.488,0.000
1621213378.053,31.738,-31.250,-48.340,7.812,0.000
1621213378.057,18.555,-31.250,-47.852,8.301,0.000
1621213378.061,17.090,-26.855,-51.758,0.977,0.000
1621213378.065,18.555,-30.273,-51.758,5.371,0.000
1621213378.068,21.973,-34.668,-50.781,0.000,0.000
1621213378.072,33.203,-38.574,-49.316,-6.836,0.000
1621213378.076,21.484,-36.621,-51.270,-6.348,0.000
1621213378.080,-6.348,-30.273,-50.781,0.488,0.000
1621213378.084,-9.766,-36.621,-42.480,-8.789,0.000
1621213378.088,-0.977,-41.016,-44.434,-10.742,0.000
1621213378.092,-6.836,-33.203,-49.316,-13.184,0.000
1621213378.096,-5.371,-30.762,-52.734,-16.602,0.000
1621213378.100,4.395,-41.016,-56.641,-8.301,0.000
1621213378.104,-4.395,-39.551,-55.176,-12.207,0.000
1621213378.107,-21.484,-25.391,-48.828,-12.207,0.000
1621213378.111,-22.461,-36.133,-45.898,-9.766,0.000
1621213378.115,-19.043,-45.410,-45.410,-9.766,0.000
1621213378.119,-10.254,-31.738,-44.434,-8.789,0.000
1621213378.123,0.977,-24.414,-41.016,0.488,0.000
1621213378.127,7.324,-31.250,-42.969,-11.230,0.000
1621213378.131,-8.789,-34.180,-42.480,-21.484,0.000
1621213378.135,-7.812,-30.762,-44.434,-25.879,0.000
1621213378.139,-1.953,-31.738,-44.434,-21.484,0.000
1621213378.143,-3.906,-29.297,-42.480,-12.695,0.000
1621213378.147,-9.277,-35.645,-48.828,-12.207,0.000
1621213378.150,-21.484,-49.316,-52.734,-16.602,0.000
1621213378.154,-10.742,-43.457,-44.922,-23.926,0.000
1621213378.158,-11.230,-32.715,-40.527,-11.230,0.000
1621213378.162,-9.277,-26.367,-41.992,-9.766,0.000
1621213378.166,-14.160,-26.855,-35.156,-21.973,0.000
1621213378.170,-4.883,-25.879,-31.738,-14.160,0.000
1621213378.174,4.883,-25.391,-38.086,-18.555,0.000
1621213378.178,-12.207,-33.203,-41.504,-21.973,0.000
1621213378.182,-10.742,-36.621,-46.387,-19.531,0.000
1621213378.186,-7.812,-32.715,-50.293,-18.066,0.000
1621213378.190,-12.695,-31.250,-46.875,-7.324,0.000
1621213378.193,-12.695,-37.598,-50.781,-7.324,0.000
1621213378.197,-2.930,-36.621,-54.688,-20.508,0.000
1621213378.201,-7.324,-33.691,-50.293,-32.227,0.000
1621213378.205,-31.738,-40.527,-46.387,-35.645,0.000
1621213378.209,-25.391,-36.621,-44.434,-26.855,0.000
1621213378.213,-15.137,-30.273,-48.828,-28.809,0.000
1621213378.217,-23.438,-34.668,-51.270,-44.922,0.000
1621213378.221,-20.996,-35.156,-42.969,-36.621,0.000
1621213378.225,-34.668,-38.574,-46.875,-23.438,0.000
1621213378.229,-41.016,-37.109,-60.059,-27.832,0.000
1621213378.233,-25.391,-40.039,-43.457,-37.598,0.000
1621213378.236,-25.879,-44.922,-38.086,-41.992,0.000
1621213378.240,-39.062,-42.969,-44.434,-36.133,0.000
1621213378.244,-25.879,-42.969,-44.434,-39.551,0.000
1621213378.248,-20.996,-55.664,-38.574,-52.734,0.000
1621213378.252,-21.973,-45.898,-43.945,-50.781,0.000
1621213378.256,-16.602,-36.133,-55.664,-33.203,0.000
1621213378.260,-27.832,-37.109,-46.387,-13.184,0.000
1621213378.264,-17.090,-29.297,-48.340,-6.836,0.000
1621213378.268,-15.625,-37.598,-53.223,-24.414,0.000
1621213378.272,-23.438,-47.363,-42.480,-25.391,0.000
1621213378.275,-21.484,-41.992,-37.598,-11.719,0.000
1621213378.279,-17.578,-35.156,-48.828,-12.695,0.000
1621213378.283,-0.488,-45.898,-54.199,-32.715,0.000
1621213378.287,4.883,-43.945,-53.711,-29.785,0.000
1621213378.291,-8.789,-34.668,-51.758,-25.879,0.000
1621213378.295,-35.156,-35.645,-41.992,-30.273,0.000
1621213378.299,-19.531,-36.621,-53.223,-13.184,0.000
1621213378.303,12.207,-28.809,-51.270,-12.695,0.000
1621213378.307,-29.785,-17.090,-40.039,-37.598,0.000
1621213378.311,-41.016,-31.250,-56.152,-42.969,0.000
1621213378.315,-26.855,-28.320,-60.547,-40.527,0.000
1621213378.318,-32.715,-16.113,-60.547,-54.199,0.000
1621213378.322,-31.738,-25.879,-73.730,-50.781,0.000
1621213378.326,-29.785,-23.926,-84.473,-40.039,0.000
1621213378.330,-37.109,-16.602,-93.750,-56.152,0.000
1621213378.334,-31.250,-21.973,-101.074,-59.570,0.000
1621213378.338,-14.648,-20.020,-94.238,-34.668,0.000
1621213378.342,-17.578,-6.836,-94.727,-43.945,0.000
1621213378.346,-15.625,-11.230,-100.586,-60.547,0.000
1621213378.350,-24.902,-23.438,-104.980,-59.082,0.000
1621213378.354,-25.879,-26.367,-104.980,-45.898,0.000
1621213378.358,-13.672,-9.277,-107.910,-45.410,0.000
1621213378.361,-16.602,-1.953,-106.445,-55.664,0.000
1621213378.365,-21.484,-6.348,-103.516,-56.641,0.000
1621213378.369,-5.859,-5.371,-105.469,-47.852,0.000
1621213378.373,-6.348,-5.371,-101.074,-28.809,0.000
1621213378.377,-5.859,-6.348,-108.887,-22.461,0.000
1621213378.381,12.695,-3.418,-109.863,-24.902,0.000
1621213378.385,24.902,5.371,-95.215,-13.672,0.000
1621213378.389,29.297,-5.859,-87.891,-8.789,0.000
1621213378.393,29.297,-15.137,-85.449,-4.883,0.000
1621213378.397,24.414,1.465,-86.914,-2.930,0.000
1621213378.400,35.645,0.977,-83.008,-11.230,0.000
1621213378.404,41.992,-14.160,-77.148,-11.719,0.000
1621213378.408,31.250,-8.789,-75.195,-7.812,0.000
1621213378.412,26.855,-10.742,-80.566,-10.254,0.000
1621213378.416,9.277,-12.695,-81.543,-15.137,0.000
1621213378.420,8.301,-7.324,-81.543,-5.859,0.000
1621213378.424,14.648,-17.090,-79.102,2.441,0.000
1621213378.428,-0.488,-23.926,-70.801,2.930,0.000
1621213378.432,-9.277,-20.508,-69.824,12.695,0.000
1621213378.436,-2.441,-23.926,-64.453,5.859,0.000
1621213378.440,9.277,-20.508,-71.289,1.953,0.000
1621213378.443,9.766,-22.461,-68.848,2.441,0.000
1621213378.447,-5.371,-30.762,-56.641,-0.977,0.000
1621213378.451,-1.465,-25.391,-53.711,4.883,0.000
1621213378.455,23.438,-20.996,-56.641,6.836,0.000
1621213378.459,14.160,-25.391,-61.035,-5.859,0.000
1621213378.463,-6.836,-28.320,-62.500,-13.672,0.000
1621213378.467,-4.883,-25.879,-63.477,-0.488,0.000
1621213378.471,5.371,-15.625,-55.664,-7.812,0.000
1621213378.475,3.906,-18.066,-50.781,-17.578,0.000
1621213378.479,2.441,-25.879,-60.059,0.000,0.000
1621213378.483,10.254,-25.879,-61.035,6.348,0.000
1621213378.486,4.883,-26.855,-49.805,0.000,0.000
1621213378.490,-9.277,-23.926,-47.852,-3.418,0.000
1621213378.494,15.137,-23.438,-47.363,-8.301,0.000
1621213378.498,-5.371,-22.949,-45.898,-20.508,0.000
1621213378.502,-39.551,-26.855,-49.805,-24.414,0.000
1621213378.506,-28.809,-31.250,-56.152,-21.484,0.000
1621213378.510,-5.859,-25.391,-51.270,-10.254,0.000
1621213378.514,32.715,-28.320,-56.152,-28.320,0.000
1621213378.518,14.160,-31.738,-58.105,-12.207,0.000
1621213378.522,-23.438,-15.137,-44.922,9.277,0.000
1621213378.525,-20.996,-20.020,-41.992,-8.301,0.000
1621213378.529,-21.973,-36.133,-40.527,-15.625,0.000
1621213378.533,-12.695,-29.785,-47.363,-10.742,0.000
1621213378.537,-8.301,-29.785,-48.340,-0.977,0.000
1621213378.541,-5.371,-36.133,-42.480,-5.859,0.000
1621213378.545,-1.953,-37.109,-45.410,3.418,0.000
1621213378.549,-25.879,-31.250,-45.410,-8.301,0.000
1621213378.553,-48.828,-18.555,-43.457,-38.574,0.000
1621213378.557,-35.156,-28.320,-53.711,-30.273,0.000
1621213378.561,-20.996,-35.156,-51.270,-14.160,0.000
1621213378.565,-10.254,-30.762,-45.410,-16.602,0.000
1621213378.568,-28.809,-31.738,-48.828,-25.879,0.000
1621213378.572,-19.531,-34.668,-45.898,-5.859,0.000
1621213378.576,-19.043,-36.133,-44.434,1.953,0.000
1621213378.580,-43.457,-37.598,-44.922,-19.531,0.000
1621213378.584,-24.414,-39.551,-44.922,-34.180,0.000
1621213378.588,-12.695,-28.809,-65.918,-29.297,0.000
1621213378.592,-11.230,-28.809,-65.430,-15.137,0.000
1621213378.596,-12.207,-29.785,-41.992,-6.836,0.000
1621213378.600,-6.348,-23.438,-45.410,-8.301,0.000
1621213378.604,-12.695,-32.227,-57.617,-22.949,0.000
1621213378.608,-23.926,-43.945,-65.918,-17.578,0.000
1621213378.611,-20.508,-33.691,-62.012,-20.508,0.000
1621213378.615,-28.809,-20.508,-52.246,-32.227,0.000
1621213378.619,-28.809,-16.602,-62.988,-34.180,0.000
1621213378.623,-37.109,-28.320,-61.523,-40.527,0.000
1621213378.627,-34.180,-38.574,-39.551,-24.902,0.000
1621213378.631,-37.598,-37.109,-27.832,6.348,0.000
1621213378.635,-61.035,-39.062,-30.273,-9.277,0.000
1621213378.639,-39.551,-37.109,-50.781,-26.367,0.000
1621213378.643,-21.973,-27.344,-66.895,-14.648,0.000
1621213378.647,-9.766,-20.996,-54.199,-3.418,0.000
1621213378.650,-11.230,-27.344,-32.715,-11.719,0.000
1621213378.654,-58.105,-41.016,-34.668,-52.734,0.000
1621213378.658,-69.336,-40.527,-52.734,-62.500,0.000
1621213378.662,-43.457,-31.738,-59.082,-65.430,0.000
1621213378.666,-45.898,-35.156,-48.828,-76.660,0.000
1621213378.670,-58.594,-35.156,-43.457,-66.406,0.000
1621213378.674,-65.430,-43.457,-41.504,-56.152,0.000
1621213378.678,-53.711,-49.316,-50.293,-57.129,0.000
1621213378.682,-52.246,-25.391,-52.734,-61.523,0.000
1621213378.686,-58.594,-14.648,-47.363,-65.918,0.000
1621213378.690,-55.176,-37.109,-41.504,-45.410,0.000
1621213378.693,-52.246,-46.875,-45.898,-42.969,0.000
1621213378.697,-51.758,-35.156,-65.918,-67.383,0.000
1621213378.701,-51.270,-30.273,-60.059,-52.734,0.000
1621213378.705,-54.199,-55.176,-34.668,-36.133,0.000
1621213378.709,-50.293,-46.875,-41.016,-39.062,0.000
1621213378.713,-39.551,-21.973,-57.617,-49.316,0.000
1621213378.717,-47.852,-57.129,-51.270,-45.898,0.000
1621213378.721,-45.410,-59.570,-44.434,-31.738,0.000
1621213378.725,-48.828,-29.785,-52.734,-36.621,0.000
1621213378.729,-41.992,-19.043,-58.105,-35.156,0.000
1621213378.733,-13.672,-20.996,-58.594,-38.086,0.000
1621213378.736,-21.484,-42.480,-46.875,-22.949,0.000
1621213378.740,-27.344,-57.129,-39.062,-11.719,0.000
1621213378.744,5.859,-37.109,-43.457,-23.438,0.000
1621213378.748,-16.602,-13.672,-47.852,-38.086,0.000
1621213378.752,-58.594,-35.645,-46.875,-47.852,0.000
1621213378.756,-35.156,-55.176,-58.105,-30.273,0.000
1621213378.760,-21.484,-36.621,-56.641,-24.902,0.000
1621213378.764,-35.645,-32.227,-44.922,-50.781,0.000
1621213378.768,-43.945,-50.781,-51.758,-46.387,0.000
1621213378.772,-31.738,-70.312,-54.199,-39.062,0.000
1621213378.775,-23.926,-28.320,-59.082,-47.852,0.000
1621213378.779,-28.809,-9.766,-44.922,-30.762,0.000
1621213378.783,-36.133,-26.855,-38.574,-20.508,0.000
1621213378.787,-49.805,-26.855,-43.945,-46.875,0.000
1621213378.791,-37.598,-35.156,-40.527,-49.316,0.000
1621213378.795,-15.625,-52.246,-46.875,-29.785,0.000
1621213378.799,-26.367,-49.316,-45.898,-30.762,0.000
1621213378.803,-29.785,-32.227,-37.109,-26.367,0.000
1621213378.807,-24.902,-29.297,-26.367,-17.578,0.000
1621213378.811,-23.926,-20.508,-33.203,-27.344,0.000
1621213378.815,-16.113,-18.066,-57.129,-43.945,0.000
1621213378.818,-26.367,-45.898,-56.152,-32.227,0.000
1621213378.822,-32.227,-47.852,-32.227,-20.508,0.000
1621213378.826,-22.461,-36.621,-26.855,-26.367,0.000
1621213378.830,-37.598,-36.133,-36.133,-29.297,0.000
1621213378.834,-40.527,-39.062,-42.969,-41.504,0.000
1621213378.838,-26.855,-41.504,-50.781,-54.688,0.000
1621213378.842,-46.875,-31.738,-40.039,-36.621,0.000
1621213378.846,-42.969,-21.484,-36.133,-35.645,0.000
1621213378.850,-32.227,-28.320,-44.434,-46.387,0.000
1621213378.854,-40.039,-39.062,-38.574,-53.223,0.000
1621213378.858,-14.160,-20.996,-34.668,-56.641,0.000
1621213378.861,-14.648,-16.602,-36.621,-54.199,0.000
1621213378.865,-37.598,-34.668,-27.832,-16.113,0.000
1621213378.869,-18.066,-49.316,-16.602,-6.836,0.000
1621213378.873,-6.348,-23.926,-31.250,-52.246,0.000
1621213378.877,-16.602,-20.996,-31.738,-34.180,0.000
1621213378.881,-20.508,-45.410,-15.625,-5.371,0.000
1621213378.885,-7.812,-34.180,-30.762,-19.043,0.000
1621213378.889,-2.930,-20.996,-39.062,-25.879,0.000
1621213378.893,0.488,-15.625,-42.969,-25.879,0.000
1621213378.897,-9.277,-17.578,-44.434,-35.645,0.000
1621213378.900,-29.297,-27.832,-22.461,-9.766,0.000
1621213378.904,-33.691,-39.062,-20.996,9.766,0.000
1621213378.908,-24.414,-44.922,-34.180,-18.066,0.000
1621213378.912,-44.922,-38.086,-40.039,-40.039,0.000
1621213378.916,-38.574,-30.762,-48.340,-35.645,0.000
1621213378.920,13.672,-26.367,-58.105,-9.766,0.000
1621213378.924,29.785,-25.879,-38.574,-0.488,0.000
1621213378.928,-1.953,-20.508,-21.973,-9.277,0.000
1621213378.932,-47.363,-25.879,-20.508,-35.645,0.000
1621213378.936,-42.480,-35.156,-21.484,-39.551,0.000
1621213378.940,-31.738,-32.715,-20.996,-27.344,0.000
1621213378.943,-51.270,-45.898,-12.207,-17.578,0.000
1621213378.947,-49.316,-40.527,-3.418,-27.344,0.000
1621213378.951,-27.832,-30.762,-7.812,-24.902,0.000
1621213378.955,-32.227,-43.945,0.000,-1.465,0.000
1621213378.959,-44.922,-61.523,11.230,-15.625,0.000
1621213378.963,-60.059,-61.523,0.488,-8.789,0.000
1621213378.967,-66.895,-48.340,0.488,-3.418,0.000
1621213378.971,-65.918,-46.875,20.508,-0.977,0.000
1621213378.975,-77.148,-58.594,32.715,-12.695,0.000
1621213378.979,-49.316,-43.945,21.973,-23.926,0.000
1621213378.983,-15.137,-50.781,19.043,0.488,0.000
1621213378.986,-32.715,-70.312,20.996,2.441,0.000
1621213378.990,-53.711,-51.270,22.461,0.977,0.000
1621213378.994,-57.129,-40.039,15.137,13.184,0.000
1621213378.998,-65.430,-48.340,8.301,7.812,0.000
1621213379.002,-60.547,-59.570,10.742,-7.812,0.000
1621213379.006,-48.340,-53.711,5.859,-7.324,0.000
1621213379.010,-41.992,-60.059,5.859,-11.230,0.000
1621213379.014,-58.105,-48.828,3.906,-18.066,0.000
1621213379.018,-50.293,-25.391,-8.789,-20.996,0.000
1621213379.022,-31.250,-30.273,-3.906,-19.043,0.000
1621213379.025,-18.066,-33.203,4.395,-11.230,0.000
1621213379.029,-13.672,-37.109,6.836,0.488,0.000
1621213379.033,-23.438,-40.039,-5.859,11.719,0.000
1621213379.037,-44.434,-41.992,-5.859,0.488,0.000
1621213379.041,-41.504,-35.156,-8.789,-17.578,0.000
1621213379.045,-23.926,-37.109,-17.090,-11.719,0.000
1621213379.049,-13.184,-37.109,-23.438,-13.184,0.000
1621213379.053,-4.883,-34.668,-23.438,-17.090,0.000
1621213379.057,19.043,-31.250,-14.648,19.043,0.000
1621213379.061,-9.766,-26.855,-10.254,7.812,0.000
1621213379.065,-49.316,-39.551,-4.395,-12.207,0.000
1621213379.068,-40.527,-37.598,-14.160,-6.348,0.000
1621213379.072,-36.621,-38.086,-24.414,-20.996,0.000
1621213379.076,-14.160,-31.250,-26.367,-7.812,0.000
1621213379.080,-23.926,-16.113,-30.762,-10.742,0.000
1621213379.084,-42.480,-27.832,-26.855,-19.531,0.000
1621213379.088,-23.926,-39.062,-22.949,1.953,0.000
1621213379.092,-7.324,-41.504,-23.438,13.672,0.000
1621213379.096,-10.742,-25.879,-24.902,1.953,0.000
1621213379.100,-8.301,-26.367,-18.555,-15.137,0.000
1621213379.104,-19.531,-41.992,-6.348,-5.371,0.000
1621213379.108,-18.555,-22.949,-17.090,-6.348,0.000
1621213379.111,12.207,-16.113,-25.391,0.488,0.000
1621213379.115,3.418,-30.762,-27.832,-1.465,0.000
1621213379.119,-15.137,-35.156,-35.156,-23.438,0.000
1621213379.123,-29.297,-29.785,-33.691,-5.371,0.000
1621213379.127,-43.457,-21.973,-26.855,-1.953,0.000
1621213379.131,-37.109,-35.645,-24.414,-10.742,0.000
1621213379.135,-40.527,-40.527,-32.715,-18.555,0.000
1621213379.139,-21.484,-27.832,-44.434,-17.090,0.000
1621213379.143,-21.973,-30.762,-36.621,-8.301,0.000
1621213379.147,-34.180,-47.363,-28.809,-16.602,0.000
1621213379.150,-41.992,-47.852,-24.414,-16.113,0.000
1621213379.154,-54.688,-37.598,-32.715,-24.414,0.000
1621213379.158,-60.059,-41.992,-37.598,-24.902,0.000
1621213379.162,-46.875,-51.758,-29.785,-15.625,0.000
1621213379.166,-22.461,-45.898,-39.551,-30.762,0.000
1621213379.170,-1.465,-33.691,-45.898,-18.066,0.000
1621213379.174,17.578,-22.461,-48.340,2.441,0.000
1621213379.178,-5.859,-18.555,-48.828,-10.742,0.000
1621213379.182,-22.461,-22.461,-40.039,1.465,0.000
1621213379.186,-9.277,-23.926,-37.109,-2.930,0.000
1621213379.190,-1.465,-23.926,-33.203,-18.555,0.000
1621213379.193,-18.066,-32.227,-35.645,-16.602,0.000
1621213379.197,-24.902,-48.828,-28.320,-6.348,0.000
1621213379.201,0.000,-37.109,-38.086,-0.488,0.000
1621213379.205,-9.766,-20.508,-42.969,-6.836,0.000
1621213379.209,-14.648,-33.691,-34.180,-11.719,0.000
1621213379.213,-6.836,-42.480,-37.109,-10.254,0.000
1621213379.217,-21.484,-39.062,-42.969,-19.531,0.000
1621213379.221,-24.414,-32.227,-45.410,-9.766,0.000
1621213379.225,-5.859,-36.133,-37.109,8.789,0.000
1621213379.229,-2.441,-42.969,-26.855,7.812,0.000
1621213379.233,-7.324,-29.785,-28.809,-18.555,0.000
1621213379.236,-11.719,-24.902,-26.855,-12.695,0.000
1621213379.240,-38.086,-27.832,-13.672,7.812,0.000
1621213379.244,-43.457,-29.785,-13.184,-10.254,0.000
1621213379.248,-18.555,-34.668,-9.277,6.348,0.000
1621213379.252,-3.418,-38.086,-3.418,10.254,0.000
1621213379.256,-11.719,-41.016,-8.301,-22.461,0.000
1621213379.260,-38.086,-48.828,-6.348,-15.137,0.000
1621213379.264,-33.203,-51.270,11.230,11.719,0.000
1621213379.268,-15.625,-47.852,16.113,-5.371,0.000
1621213379.272,-7.324,-49.316,13.672,2.930,0.000
1621213379.275,-8.301,-55.176,24.902,18.066,0.000
1621213379.279,8.789,-42.969,16.602,-2.930,0.000
1621213379.283,17.090,-50.781,17.090,32.227,0.000
1621213379.287,-4.395,-61.523,34.180,43.457,0.000
1621213379.291,-2.441,-54.199,38.574,25.391,0.000
1621213379.295,-12.695,-59.082,38.086,38.086,0.000
1621213379.299,9.766,-57.129,28.809,51.270,0.000
1621213379.303,21.973,-41.992,33.691,45.410,0.000
1621213379.307,8.301,-42.480,42.969,48.340,0.000
1621213379.311,40.527,-53.223,41.992,58.594,0.000
1621213379.315,25.391,-59.570,38.574,24.902,0.000
1621213379.318,10.254,-45.410,36.621,49.805,0.000
1621213379.322,25.391,-37.109,34.668,54.688,0.000
1621213379.326,10.254,-54.199,41.992,40.039,0.000
1621213379.330,15.137,-53.711,37.109,44.922,0.000
1621213379.334,6.836,-48.340,35.645,28.809,0.000
1621213379.338,1.465,-57.129,44.434,45.898,0.000
1621213379.342,16.602,-62.012,44.922,43.945,0.000
1621213379.346,16.113,-60.547,28.320,31.250,0.000
1621213379.350,0.488,-56.641,18.555,30.762,0.000
1621213379.354,-2.930,-49.805,23.438,19.531,0.000
1621213379.358,16.602,-40.527,13.672,23.438,0.000
1621213379.361,26.855,-51.758,12.695,21.973,0.000
1621213379.365,11.719,-55.664,11.230,10.742,0.000
1621213379.369,-3.906,-46.387,3.418,6.348,0.000
1621213379.373,-1.953,-45.410,5.371,20.508,0.000
1621213379.377,18.555,-36.621,-2.930,40.039,0.000
1621213379.381,13.184,-37.598,-13.672,15.625,0.000
1621213379.385,-3.906,-52.246,-3.906,0.977,0.000
1621213379.389,0.977,-40.527,-4.883,22.461,0.000
1621213379.393,4.395,-31.738,-18.555,18.066,0.000
1621213379.397,-1.465,-33.203,-18.555,5.371,0.000
1621213379.400,7.324,-34.668,-3.906,22.949,0.000
1621213379.404,13.672,-31.250,-11.230,6.836,0.000
1621213379.408,17.090,-30.273,-15.137,0.977,0.000
1621213379.412,19.043,-35.645,-4.883,22.949,0.000
1621213379.416,14.160,-34.180,-5.371,9.766,0.000
1621213379.420,29.785,-26.367,-21.973,3.906,0.000
1621213379.424,16.113,-25.391,-30.273,25.879,0.000
1621213379.428,-16.602,-31.738,-11.719,14.160,0.000
1621213379.432,-13.672,-25.879,-14.160,-8.789,0.000
1621213379.436,-20.508,-37.109,-22.949,-2.930,0.000
1621213379.440,-14.160,-44.434,-13.672,-0.488,0.000
1621213379.443,9.766,-24.414,-16.602,15.137,0.000
1621213379.447,2.441,-24.414,-23.926,10.254,0.000
1621213379.451,0.977,-30.273,-20.996,-13.672,0.000
1621213379.455,-3.906,-31.250,-27.832,-17.090,0.000
1621213379.459,-7.324,-33.691,-32.715,-7.812,0.000
1621213379.463,-3.906,-33.691,-24.414,-5.371,0.000
1621213379.467,-8.789,-35.156,-20.996,-6.836,0.000
1621213379.471,-20.020,-34.668,-28.809,-13.184,0.000
1621213379.475,-0.488,-28.809,-37.109,-18.066,0.000
1621213379.479,-2.930,-19.531,-33.203,-8.789,0.000
1621213379.483,-14.648,-19.043,-30.273,0.488,0.000
1621213379.486,11.719,-25.879,-28.809,13.184,0.000
1621213379.490,24.414,-14.160,-15.137,17.578,0.000
1621213379.494,7.812,-18.555,-11.230,5.371,0.000
1621213379.498,-23.438,-43.457,-26.367,-33.691,0.000
1621213379.502,-12.695,-31.250,-22.949,-6.836,0.000
1621213379.506,-1.953,-13.672,-6.348,29.297,0.000
1621213379.510,-22.461,-23.438,-13.672,-15.137,0.000
1621213379.514,-32.227,-32.715,-8.789,-29.785,0.000
1621213379.518,-46.387,-30.762,9.277,-30.273,0.000
1621213379.522,-57.617,-40.527,-1.953,-64.453,0.000
1621213379.525,-49.316,-36.133,-8.301,-77.148,0.000
1621213379.529,-79.102,-33.691,12.695,-64.941,0.000
1621213379.533,-109.375,-55.664,22.461,-76.660,0.000
1621213379.537,-128.418,-67.871,24.902,-119.141,0.000
1621213379.541,-161.621,-59.570,32.715,-129.883,0.000
1621213379.545,-155.273,-53.711,27.832,-124.023,0.000
1621213379.549,-158.691,-43.457,15.625,-161.133,0.000
1621213379.553,-190.918,-35.156,23.926,-187.012,0.000
1621213379.557,-196.777,-41.504,46.875,-169.922,0.000
1621213379.561,-213.867,-39.551,36.621,-200.684,0.000
1621213379.565,-225.586,-41.504,12.695,-228.516,0.000
1621213379.568,-215.820,-38.086,17.090,-220.215,0.000
1621213379.572,-238.281,-18.555,28.809,-223.633,0.000
1621213379.576,-244.141,-11.230,22.461,-224.609,0.000
1621213379.580,-229.980,-21.973,19.043,-221.680,0.000
1621213379.584,-250.000,-27.832,3.906,-240.723,0.000
1621213379.588,-234.863,-8.301,-3.906,-240.234,0.000
1621213379.592,-243.164,8.789,1.953,-236.816,0.000
1621213379.596,-245.117,-11.230,-3.906,-237.305,0.000
1621213379.600,-208.496,-25.391,-9.766,-192.383,0.000
1621213379.604,-189.453,-18.555,-1.465,-176.758,0.000
1621213379.608,-200.195,-19.531,-1.465,-195.312,0.000
1621213379.611,-168.457,-17.090,-18.066,-160.156,0.000
1621213379.615,-129.395,-20.020,-20.020,-122.559,0.000
1621213379.619,-132.812,-30.762,-26.367,-122.070,0.000
1621213379.623,-101.562,-42.480,-38.086,-101.562,0.000
1621213379.627,-77.637,-39.062,-34.180,-61.523,0.000
1621213379.631,-71.289,-33.203,-32.715,-37.109,0.000
1621213379.635,-34.668,-41.504,-35.645,-16.602,0.000
1621213379.639,-5.859,-41.016,-40.527,-13.184,0.000
1621213379.643,-5.371,-39.551,-63.477,-15.625,0.000
1621213379.647,2.930,-43.945,-64.941,16.602,0.000
1621213379.650,21.484,-38.086,-63.965,26.367,0.000
1621213379.654,44.922,-33.203,-72.754,33.203,0.000
1621213379.658,42.969,-41.992,-77.637,52.734,0.000
1621213379.662,19.531,-46.875,-82.031,26.367,0.000
1621213379.666,27.832,-34.180,-86.426,3.418,0.000
1621213379.670,47.852,-29.785,-87.891,27.344,0.000
1621213379.674,52.734,-42.969,-85.938,43.945,0.000
1621213379.678,52.734,-56.152,-84.961,38.086,0.000
1621213379.682,52.734,-51.270,-92.773,34.180,0.000
1621213379.686,63.965,-28.320,-98.633,45.898,0.000
1621213379.690,65.430,-26.855,-89.355,46.875,0.000
1621213379.693,70.801,-31.250,-82.031,48.340,0.000
1621213379.697,75.195,-17.090,-81.055,53.223,0.000
1621213379.701,60.547,-17.578,-80.078,38.574,0.000
1621213379.705,35.645,-32.715,-77.637,31.250,0.000
1621213379.709,53.711,-35.156,-82.520,40.527,0.000
1621213379.713,64.453,-24.902,-88.379,25.391,0.000
1621213379.717,31.250,-23.926,-90.820,10.742,0.000
1621213379.721,45.898,-28.320,-82.031,29.297,0.000
1621213379.725,55.664,-30.273,-91.797,45.410,0.000
1621213379.729,41.016,-28.809,-95.215,49.805,0.000
1621213379.733,55.664,-22.461,-80.566,45.898,0.000
1621213379.736,59.082,-36.133,-76.172,42.969,0.000
1621213379.740,43.457,-39.551,-73.730,44.922,0.000
1621213379.744,33.203,-35.645,-72.266,45.410,0.000
1621213379.748,50.293,-28.809,-82.031,41.504,0.000
1621213379.752,56.152,-24.414,-84.473,35.645,0.000
1621213379.756,59.570,-37.598,-74.707,55.176,0.000
1621213379.760,62.500,-40.039,-80.078,60.059,0.000
1621213379.764,28.809,-39.062,-83.008,39.062,0.000
1621213379.768,21.484,-35.156,-82.520,36.621,0.000
1621213379.772,44.922,-20.996,-82.520,27.832,0.000
1621213379.775,43.457,-21.973,-81.055,35.156,0.000
1621213379.779,18.555,-34.180,-78.613,34.180,0.000
1621213379.783,25.879,-30.762,-68.359,20.996,0.000
1621213379.787,51.758,-23.438,-65.918,29.297,0.000
1621213379.791,37.109,-30.762,-71.289,27.344,0.000
1621213379.795,26.855,-39.062,-73.730,21.484,0.000
1621213379.799,44.434,-32.715,-72.266,20.508,0.000
1621213379.803,31.738,-17.090,-72.266,24.902,0.000
1621213379.807,19.531,-21.484,-74.219,20.020,0.000
1621213379.811,33.691,-30.273,-71.777,11.230,0.000
1621213379.815,20.996,-33.203,-62.012,-1.953,0.000
1621213379.818,3.906,-38.086,-58.105,0.977,0.000
1621213379.822,26.855,-18.066,-60.059,21.973,0.000
1621213379.826,35.645,-14.160,-64.453,19.043,0.000
1621213379.830,8.301,-35.156,-70.312,-4.883,0.000
1621213379.834,8.789,-30.273,-64.941,4.395,0.000
1621213379.838,16.602,-26.367,-62.500,21.973,0.000
1621213379.842,20.996,-22.949,-69.824,16.113,0.000
1621213379.846,19.531,-23.926,-61.035,5.371,0.000
1621213379.850,6.836,-29.297,-51.270,-6.348,0.000
1621213379.854,14.160,-24.414,-53.711,4.883,0.000
1621213379.858,27.832,-24.902,-59.082,6.836,0.000
1621213379.861,20.020,-27.832,-59.082,21.484,0.000
1621213379.865,33.691,-22.461,-48.340,38.086,0.000
1621213379.869,20.996,-27.344,-48.828,1.465,0.000
1621213379.873,-26.367,-32.227,-63.477,-38.574,0.000
1621213379.877,-35.645,-32.227,-69.336,-41.016,0.000
1621213379.881,-18.555,-38.086,-79.102,-29.785,0.000
1621213379.885,-1.953,-40.527,-72.754,-14.160,0.000
1621213379.889,16.602,-28.809,-49.316,-8.789,0.000
1621213379.893,5.371,-37.598,-48.828,-12.207,0.000
1621213379.897,-21.484,-41.992,-69.824,-27.344,0.000
1621213379.900,-26.367,-28.809,-79.590,-43.945,0.000
1621213379.904,-27.832,-37.598,-77.148,-38.574,0.000
1621213379.908,-41.016,-49.805,-68.359,-30.273,0.000
1621213379.912,-24.902,-43.457,-60.059,-25.879,0.000
1621213379.916,-8.789,-37.109,-64.941,-29.785,0.000
1621213379.920,-36.621,-35.156,-70.801,-48.828,0.000
1621213379.924,-29.785,-41.992,-56.641,-37.598,0.000
1621213379.928,-22.461,-41.992,-49.805,-18.066,0.000
1621213379.932,-28.320,-35.156,-57.129,-21.484,0.000
1621213379.936,-23.926,-36.621,-56.641,-34.668,0.000
1621213379.940,-1.953,-36.621,-63.965,-21.484,0.000
1621213379.943,11.719,-31.250,-62.500,-5.371,0.000
1621213379.947,-19.043,-33.203,-54.688,-30.762,0.000
1621213379.951,-22.949,-40.039,-48.340,-35.645,0.000
1621213379.955,-16.602,-39.551,-42.480,-10.742,0.000
1621213379.959,-32.227,-32.715,-38.086,-12.207,0.000
1621213379.963,-17.090,-27.832,-36.621,-12.207,0.000
1621213379.967,15.137,-39.551,-29.785,1.465,0.000
1621213379.971,14.648,-46.875,-27.832,6.836,0.000
1621213379.975,3.418,-40.527,-35.645,24.414,0.000
1621213379.979,-1.465,-38.574,-29.297,23.926,0.000
1621213379.983,-0.488,-41.016,-28.320,11.719,0.000
1621213379.986,5.859,-37.598,-34.180,20.020,0.000
1621213379.990,14.160,-37.598,-30.762,17.578,0.000
1621213379.994,17.090,-41.504,-17.578,35.645,0.000
1621213379.998,2.441,-44.434,-20.508,29.785,0.000
1621213380.002,1.465,-39.062,-39.551,11.230,0.000
1621213380.006,19.043,-33.691,-37.598,14.648,0.000
1621213380.010,30.273,-27.832,-36.133,14.648,0.000
1621213380.014,18.066,-32.227,-41.504,14.160,0.000
1621213380.018,11.230,-42.969,-39.062,4.883,0.000
1621213380.022,27.344,-42.969,-38.574,11.230,0.000
1621213380.025,21.484,-43.457,-40.039,8.789,0.000
1621213380.029,-5.859,-38.086,-40.039,-8.789,0.000
1621213380.033,-22.949,-33.203,-46.387,-14.160,0.000
1621213380.037,-15.625,-38.574,-54.199,-7.812,0.000
1621213380.041,-1.953,-34.668,-43.945,4.883,0.000
1621213380.045,8.301,-23.438,-38.574,19.043,0.000
1621213380.049,20.020,-35.645,-39.551,13.184,0.000
1621213380.053,12.695,-41.016,-41.016,-0.488,0.000
1621213380.057,5.859,-27.832,-46.875,9.766,0.000
1621213380.061,10.254,-32.715,-44.434,14.648,0.000
1621213380.065,8.301,-32.715,-41.504,-0.977,0.000
1621213380.068,-7.324,-37.598,-48.340,-20.020,0.000
1621213380.072,-2.930,-36.621,-52.734,-6.836,0.000
1621213380.076,10.254,-27.344,-51.270,20.020,0.000
1621213380.080,-4.395,-42.480,-34.668,14.160,0.000
1621213380.084,-2.441,-44.434,-27.344,3.418,0.000
1621213380.088,-9.277,-31.250,-39.062,-6.836,0.000
1621213380.092,-24.902,-37.598,-48.340,-15.137,0.000
1621213380.096,-13.672,-44.434,-59.082,-14.160,0.000
1621213380.100,-10.742,-41.992,-57.129,-15.137,0.000
1621213380.104,-20.996,-42.969,-61.523,-17.578,0.000
1621213380.108,-11.719,-42.969,-49.316,-6.348,0.000
1621213380.111,-1.953,-45.898,-35.645,5.859,0.000
1621213380.115,-2.930,-42.969,-47.363,-11.719,0.000
1621213380.119,-16.113,-33.691,-50.293,-25.391,0.000
1621213380.123,-17.578,-36.621,-48.340,-14.648,0.000
1621213380.127,-11.230,-45.898,-42.480,-15.625,0.000
1621213380.131,-13.672,-36.133,-47.852,-29.297,0.000
1621213380.135,-10.254,-43.945,-55.664,-30.762,0.000
1621213380.139,-14.160,-42.969,-60.547,-16.113,0.000
1621213380.143,-6.348,-27.832,-65.430,1.465,0.000
1621213380.147,-14.160,-37.598,-54.199,-14.160,0.000
1621213380.150,-33.203,-48.340,-47.363,-28.320,0.000
1621213380.154,-29.297,-41.992,-46.387,-21.484,0.000
1621213380.158,-16.602,-41.504,-52.246,-12.695,0.000
1621213380.162,-24.902,-47.852,-50.781,-14.648,0.000
1621213380.166,-29.297,-45.410,-50.781,-29.785,0.000
1621213380.170,-18.066,-40.527,-59.082,-25.879,0.000
1621213380.174,-12.207,-43.457,-59.082,-15.137,0.000
1621213380.178,5.859,-41.504,-52.734,-18.066,0.000
1621213380.182,-1.465,-39.062,-50.781,-20.996,0.000
1621213380.186,-34.668,-45.410,-51.270,-14.160,0.000
1621213380.190,-29.785,-32.715,-53.223,-11.719,0.000
1621213380.193,-18.066,-26.367,-52.246,-17.578,0.000
1621213380.197,-21.484,-29.785,-47.363,-11.719,0.000
1621213380.201,-11.719,-35.156,-49.805,-19.043,0.000
1621213380.205,-2.441,-41.504,-58.105,-28.320,0.000
1621213380.209,-20.508,-40.527,-62.012,-14.648,0.000
1621213380.213,-19.531,-28.320,-54.199,-12.695,0.000
1621213380.217,-10.254,-25.391,-44.434,-20.020,0.000
1621213380.221,-8.301,-34.180,-41.992,-19.531,0.000
1621213380.225,-6.348,-30.273,-46.875,-20.020,0.000
1621213380.229,-15.625,-35.156,-55.664,-16.113,0.000
1621213380.233,-9.277,-40.527,-58.594,-29.297,0.000
1621213380.236,-24.902,-40.039,-42.480,-36.621,0.000
1621213380.240,-39.551,-31.250,-42.969,-25.879,0.000
1621213380.244,-14.648,-24.414,-54.199,-20.020,0.000
1621213380.248,-14.648,-27.344,-47.363,-12.207,0.000
1621213380.252,-8.789,-29.297,-38.574,-9.277,0.000
1621213380.256,-7.324,-24.902,-50.293,-2.930,0.000
1621213380.260,-23.438,-31.250,-58.105,-9.277,0.000
1621213380.264,-32.715,-43.945,-50.293,-17.090,0.000
1621213380.268,-19.043,-45.410,-41.992,-18.066,0.000
1621213380.272,2.441,-34.180,-47.363,-7.812,0.000
1621213380.275,-2.930,-21.973,-44.922,-1.465,0.000
1621213380.279,-10.742,-31.738,-34.180,0.977,0.000
1621213380.283,-6.348,-43.945,-36.621,8.789,0.000
1621213380.287,-6.836,-38.086,-50.781,-5.859,0.000
1621213380.291,5.859,-33.691,-58.594,0.977,0.000
1621213380.295,-2.930,-38.574,-39.551,12.695,0.000
1621213380.299,-9.277,-31.738,-35.645,-9.277,0.000
1621213380.303,-33.203,-12.207,-52.734,-41.992,0.000
1621213380.307,-62.988,-23.926,-56.152,-56.641,0.000
1621213380.311,-63.477,-32.227,-54.199,-52.246,0.000
1621213380.315,-41.016,-20.020,-50.293,-55.176,0.000
1621213380.318,-36.133,-21.484,-53.711,-58.105,0.000
1621213380.322,-85.938,-25.391,-55.176,-69.336,0.000
1621213380.326,-112.793,-27.344,-69.824,-94.238,0.000
1621213380.330,-104.980,-26.367,-82.031,-99.121,0.000
1621213380.334,-88.379,-24.414,-82.520,-95.703,0.000
1621213380.338,-89.355,-22.949,-88.379,-98.145,0.000
1621213380.342,-100.098,-21.973,-88.867,-110.840,0.000
1621213380.346,-78.613,-28.320,-87.891,-104.492,0.000
1621213380.350,-79.102,-28.320,-98.145,-88.867,0.000
1621213380.354,-89.844,-23.438,-98.145,-85.449,0.000
1621213380.358,-74.707,-4.395,-85.938,-83.008,0.000
1621213380.361,-69.824,0.000,-88.379,-75.195,0.000
1621213380.365,-69.336,-20.020,-96.191,-71.289,0.000
1621213380.369,-76.172,-9.766,-105.469,-80.078,0.000
1621213380.373,-50.781,3.906,-99.121,-82.031,0.000
1621213380.377,-53.223,-4.883,-89.355,-72.754,0.000
1621213380.381,-58.594,-17.578,-85.449,-62.988,0.000
1621213380.385,-43.457,-25.391,-80.566,-51.758,0.000
1621213380.389,-43.457,-20.508,-76.660,-45.898,0.000
1621213380.393,-33.203,-18.555,-82.031,-48.828,0.000
1621213380.397,-46.387,-22.461,-84.473,-49.805,0.000
1621213380.400,-55.664,-25.391,-71.289,-41.504,0.000
1621213380.404,-55.176,-23.438,-71.777,-45.410,0.000
1621213380.408,-40.039,-18.555,-78.125,-49.316,0.000
1621213380.412,-38.086,-19.043,-72.754,-26.855,0.000
1621213380.416,-44.922,-24.902,-69.336,-34.668,0.000
1621213380.420,-53.223,-28.320,-73.730,-58.594,0.000
1621213380.424,-46.875,-24.902,-70.801,-33.691,0.000
1621213380.428,-20.996,-24.414,-62.988,-30.762,0.000
1621213380.432,-17.578,-28.320,-72.266,-32.227,0.000
1621213380.436,-24.902,-33.203,-68.848,-24.414,0.000
1621213380.440,-22.949,-34.668,-61.035,-20.508,0.000
1621213380.443,-20.508,-27.344,-66.895,-26.855,0.000
1621213380.447,-33.203,-20.508,-63.477,-33.203,0.000
1621213380.451,-31.250,-23.438,-67.383,-39.551,0.000
1621213380.455,-13.672,-28.809,-68.359,-33.691,0.000
1621213380.459,-6.348,-25.391,-61.035,-11.719,0.000
1621213380.463,-17.090,-23.926,-60.547,-27.344,0.000
1621213380.467,-25.879,-31.250,-67.383,-44.434,0.000
1621213380.471,-28.320,-31.738,-70.801,-38.574,0.000
1621213380.475,-28.809,-21.973,-52.734,-25.879,0.000
1621213380.479,-44.922,-25.391,-47.852,-36.621,0.000
1621213380.483,-53.223,-34.668,-54.199,-42.969,0.000
1621213380.486,-41.992,-30.273,-50.781,-45.410,0.000
1621213380.490,-41.504,-18.555,-58.594,-43.945,0.000
1621213380.494,-40.527,-20.020,-51.758,-37.109,0.000
1621213380.498,-43.457,-34.668,-50.293,-47.852,0.000
1621213380.502,-49.316,-30.273,-41.504,-44.922,0.000
1621213380.506,-57.129,-22.949,-41.016,-61.523,0.000
1621213380.510,-68.848,-34.180,-41.992,-73.730,0.000
1621213380.514,-78.125,-31.250,-27.832,-73.730,0.000
1621213380.518,-110.352,-29.297,-29.297,-100.098,0.000
1621213380.522,-136.230,-47.852,-30.273,-114.746,0.000
1621213380.525,-125.000,-36.621,-13.672,-104.004,0.000
1621213380.529,-135.742,-9.766,-1.953,-127.930,0.000
1621213380.533,-196.777,-16.113,-28.809,-197.754,0.000
1621213380.537,-228.027,-17.090,-27.344,-220.215,0.000
1621213380.541,-261.230,-10.254,-21.484,-256.348,0.000
1621213380.545,-290.039,1.953,-37.109,-288.574,0.000
1621213380.549,-303.711,14.648,-39.551,-302.734,0.000
1621213380.553,-315.430,34.180,-43.945,-332.520,0.000
1621213380.557,-310.059,54.199,-52.246,-344.727,0.000
1621213380.561,-312.500,63.965,-69.824,-340.332,0.000
1621213380.565,-305.664,63.965,-87.402,-341.797,0.000
1621213380.568,-288.086,61.035,-86.914,-343.262,0.000
1621213380.572,-280.762,57.617,-93.262,-315.918,0.000
1621213380.576,-255.371,65.918,-114.258,-292.969,0.000
1621213380.580,-229.980,72.754,-122.070,-267.090,0.000
1621213380.584,-218.262,75.684,-121.094,-243.652,0.000
1621213380.588,-187.012,75.684,-141.602,-222.168,0.000
1621213380.592,-144.043,76.660,-156.738,-192.871,0.000
1621213380.596,-127.930,58.105,-161.133,-179.688,0.000
1621213380.600,-103.516,47.363,-165.039,-157.715,0.000
1621213380.604,-89.355,56.152,-182.129,-144.531,0.000
1621213380.608,-67.383,47.852,-186.523,-115.234,0.000
1621213380.611,-40.527,36.621,-172.363,-90.332,0.000
1621213380.615,-29.785,25.879,-169.434,-73.242,0.000
1621213380.619,-21.973,19.043,-180.176,-73.242,0.000
1621213380.623,11.230,7.324,-184.570,-44.922,0.000
1621213380.627,41.504,1.465,-170.410,-8.301,0.000
1621213380.631,22.461,-9.277,-167.969,-41.992,0.000
1621213380.635,28.320,-26.855,-169.922,-31.738,0.000
1621213380.639,41.504,-31.250,-164.062,-10.254,0.000
1621213380.643,39.062,-26.855,-162.109,3.906,0.000
1621213380.647,71.289,-36.133,-158.691,18.066,0.000
1621213380.650,69.824,-41.992,-153.809,23.438,0.000
1621213380.654,65.430,-41.016,-147.949,22.949,0.000
1621213380.658,77.637,-41.016,-145.996,28.809,0.000
1621213380.662,83.008,-36.621,-135.254,44.434,0.000
1621213380.666,96.191,-36.621,-123.535,48.828,0.000
1621213380.670,83.496,-44.922,-121.582,44.922,0.000
1621213380.674,84.961,-50.781,-111.328,57.617,0.000
1621213380.678,100.586,-44.434,-103.027,65.430,0.000
1621213380.682,95.703,-51.758,-107.910,48.828,0.000
1621213380.686,88.867,-56.641,-110.352,32.715,0.000
1621213380.690,88.867,-51.758,-101.562,52.246,0.000
1621213380.693,86.914,-52.734,-105.469,68.848,0.000
1621213380.697,77.148,-50.781,-102.539,53.223,0.000
1621213380.701,73.730,-59.570,-88.379,34.668,0.000
1621213380.705,76.660,-49.805,-91.309,30.273,0.000
1621213380.709,67.871,-40.527,-87.891,48.340,0.000
1621213380.713,62.012,-41.016,-81.055,44.922,0.000
1621213380.717,74.219,-34.180,-85.449,19.043,0.000
1621213380.721,64.453,-40.039,-89.844,31.738,0.000
1621213380.725,62.500,-56.641,-86.914,48.828,0.000
1621213380.729,64.941,-49.316,-78.613,35.645,0.000
1621213380.733,55.176,-38.574,-81.055,29.785,0.000
1621213380.736,54.688,-41.504,-83.008,34.180,0.000
1621213380.740,54.688,-45.410,-74.707,47.852,0.000
1621213380.744,52.246,-47.363,-72.754,50.293,0.000
1621213380.748,48.828,-38.574,-72.266,47.363,0.000
1621213380.752,61.035,-45.898,-71.777,43.945,0.000
1621213380.756,45.410,-47.852,-70.312,28.809,0.000
1621213380.760,25.879,-41.504,-61.523,35.645,0.000
1621213380.764,37.109,-45.410,-56.152,39.551,0.000
1621213380.768,30.762,-52.246,-67.871,26.367,0.000
1621213380.772,34.180,-57.129,-71.289,27.832,0.000
1621213380.775,37.109,-48.828,-69.336,35.156,0.000
1621213380.779,31.250,-31.738,-70.801,27.344,0.000
1621213380.783,10.254,-41.504,-58.594,17.090,0.000
1621213380.787,20.508,-55.664,-58.105,26.367,0.000
1621213380.791,26.367,-44.922,-63.477,25.879,0.000
1621213380.795,17.578,-33.691,-56.152,15.625,0.000
1621213380.799,22.461,-43.457,-54.688,18.555,0.000
1621213380.803,20.996,-43.457,-65.918,11.719,0.000
1621213380.807,18.066,-41.504,-65.918,7.324,0.000
1621213380.811,4.883,-46.875,-59.082,-9.277,0.000
1621213380.815,3.906,-40.527,-55.176,-7.324,0.000
1621213380.818,3.906,-50.293,-47.363,14.648,0.000
1621213380.822,-5.859,-55.664,-55.664,11.230,0.000
1621213380.826,4.395,-45.898,-60.059,9.766,0.000
1621213380.830,9.766,-53.223,-59.570,6.348,0.000
1621213380.834,12.207,-59.570,-54.688,-1.953,0.000
1621213380.838,3.906,-41.016,-63.477,-2.930,0.000
1621213380.842,-12.207,-35.645,-70.801,-8.301,0.000
1621213380.846,-15.625,-45.898,-49.805,-10.742,0.000
1621213380.850,2.441,-36.621,-48.340,-17.578,0.000
1621213380.854,20.996,-33.691,-53.711,-11.230,0.000
1621213380.858,11.719,-52.734,-43.457,0.977,0.000
1621213380.861,2.441,-61.523,-45.898,21.973,0.000
1621213380.865,9.277,-41.504,-54.199,37.109,0.000
1621213380.869,10.254,-29.785,-54.199,8.789,0.000
1621213380.873,-5.859,-28.320,-53.711,-27.344,0.000
1621213380.877,-22.461,-34.180,-67.383,-33.691,0.000
1621213380.881,-4.395,-35.156,-69.824,-30.762,0.000
1621213380.885,-12.207,-30.273,-63.477,-47.852,0.000
1621213380.889,-42.480,-27.832,-74.219,-50.781,0.000
1621213380.893,-38.086,-25.391,-81.543,-47.852,0.000
1621213380.897,-13.672,-28.809,-78.613,-61.035,0.000
1621213380.901,-15.137,-18.066,-82.520,-63.965,0.000
1621213380.904,-18.066,-11.719,-95.215,-50.293,0.000
1621213380.908,-6.836,-16.113,-85.938,-35.156,0.000
1621213380.912,-25.391,-26.367,-74.219,-38.574,0.000
1621213380.916,-26.367,-35.645,-77.148,-50.293,0.000
1621213380.920,-17.578,-41.016,-82.031,-49.805,0.000
1621213380.924,-27.832,-41.504,-81.543,-41.016,0.000
1621213380.928,-13.672,-43.457,-67.383,-30.762,0.000
1621213380.932,-5.859,-39.551,-63.965,-42.480,0.000
1621213380.936,-17.578,-28.809,-66.895,-47.852,0.000
1621213380.940,-15.625,-29.297,-65.918,-41.016,0.000
1621213380.943,-5.859,-37.598,-61.035,-34.668,0.000
1621213380.947,-9.277,-37.598,-59.082,-32.227,0.000
1621213380.951,-7.812,-35.156,-56.641,-18.066,0.000
1621213380.955,2.930,-30.762,-56.152,-14.648,0.000
1621213380.959,-7.812,-33.691,-54.199,-21.484,0.000
1621213380.963,-17.578,-43.945,-63.477,-18.555,0.000
1621213380.967,-9.277,-43.945,-68.848,-17.090,0.000
1621213380.971,-8.789,-34.668,-53.223,-6.836,0.000
1621213380.975,-10.742,-29.785,-45.898,-5.371,0.000
1621213380.979,-2.441,-34.668,-35.645,8.301,0.000
1621213380.983,2.441,-29.297,-35.156,9.277,0.000
1621213380.986,15.137,-20.996,-41.992,-17.090,0.000
1621213380.990,-2.441,-25.391,-49.805,-13.672,0.000
1621213380.994,-17.578,-28.320,-49.805,-5.371,0.000
1621213380.998,-18.066,-19.043,-44.922,-11.719,0.000
1621213381.002,-11.719,-20.996,-53.223,-25.391,0.000
1621213381.006,-4.395,-30.273,-51.270,-24.414,0.000
1621213381.010,-22.461,-29.297,-41.504,-11.719,0.000
1621213381.014,-12.207,-24.414,-45.410,-10.742,0.000
1621213381.018,9.277,-32.227,-43.457,-18.066,0.000
1621213381.022,-4.395,-35.156,-42.969,-20.020,0.000
1621213381.026,0.000,-25.391,-47.363,-11.719,0.000
1621213381.029,-1.953,-25.879,-47.852,-4.883,0.000
1621213381.033,-26.855,-30.273,-52.246,-23.926,0.000
1621213381.037,-29.297,-29.785,-56.641,-32.227,0.000
1621213381.041,-13.184,-38.574,-67.383,-25.879,0.000
1621213381.045,0.000,-40.527,-59.570,-30.762,0.000
1621213381.049,-8.301,-40.527,-40.527,-42.969,0.000
1621213381.053,-7.812,-36.621,-40.527,-33.691,0.000
1621213381.057,-20.996,-38.574,-49.316,-15.137,0.000
1621213381.061,-12.207,-49.805,-54.199,-20.508,0.000
1621213381.065,20.020,-39.062,-53.223,-29.297,0.000
1621213381.068,12.207,-24.902,-51.270,-29.297,0.000
1621213381.072,-13.184,-25.391,-52.734,-36.133,0.000
1621213381.076,-2.930,-29.297,-58.594,-33.203,0.000
1621213381.080,-3.906,-26.367,-51.758,-26.367,0.000
1621213381.084,-8.789,-23.438,-46.387,-20.020,0.000
1621213381.088,2.441,-31.738,-48.828,-16.113,0.000
1621213381.092,-2.930,-37.598,-47.363,-9.766,0.000
1621213381.096,-3.418,-32.227,-41.016,-2.930,0.000
1621213381.100,-11.719,-29.785,-53.223,-13.184,0.000
1621213381.104,-9.766,-28.809,-57.129,-26.367,0.000
1621213381.108,-9.277,-37.109,-41.016,-28.320,0.000
1621213381.111,-20.996,-40.527,-45.898,-15.625,0.000
1621213381.115,-10.742,-30.762,-46.875,-13.672,0.000
1621213381.119,4.883,-27.832,-42.480,-22.949,0.000
1621213381.123,-14.160,-34.668,-43.457,-7.812,0.000
1621213381.127,-21.973,-31.738,-42.480,-5.371,0.000
1621213381.131,-10.742,-32.227,-41.504,-15.625,0.000
1621213381.135,-7.324,-32.715,-40.527,-22.949,0.000
1621213381.139,-10.742,-33.691,-37.598,-23.438,0.000
1621213381.143,-12.207,-41.992,-43.457,-12.695,0.000
1621213381.147,5.371,-28.809,-61.523,-14.160,0.000
1621213381.151,15.137,-31.250,-53.711,-4.395,0.000
1621213381.154,-8.789,-40.039,-32.227,-14.160,0.000
1621213381.158,-21.973,-37.109,-24.902,-39.551,0.000
1621213381.162,-20.020,-45.898,-28.809,-37.598,0.000
1621213381.166,-45.898,-52.246,-29.297,-30.762,0.000
1621213381.170,-63.965,-60.547,-21.484,-31.738,0.000
1621213381.174,-56.641,-57.129,-17.090,-25.879,0.000
1621213381.178,-44.434,-46.875,-12.207,-18.555,0.000
1621213381.182,-53.223,-41.504,-6.836,-24.414,0.000
1621213381.186,-50.781,-44.922,-14.160,-25.879,0.000
1621213381.190,-33.203,-52.734,-11.230,-13.184,0.000
1621213381.193,-43.457,-62.012,-2.441,-4.883,0.000
1621213381.197,-23.438,-62.500,-13.672,-10.254,0.000
1621213381.201,-27.832,-57.129,-16.113,-17.578,0.000
1621213381.205,-62.012,-51.758,-2.930,-15.137,0.000
1621213381.209,-41.992,-51.758,-7.812,-10.742,0.000
1621213381.213,-39.551,-52.734,-9.766,-14.160,0.000
1621213381.217,-39.062,-45.898,-3.906,-18.066,0.000
1621213381.221,-21.973,-48.340,-13.184,-11.719,0.000
1621213381.225,-30.273,-58.105,-20.996,-7.812,0.000
1621213381.229,-38.574,-51.270,-18.555,-10.742,0.000
1621213381.233,-43.457,-52.246,-20.996,-14.160,0.000
1621213381.236,-30.273,-56.152,-27.344,5.859,0.000
1621213381.240,-23.438,-60.059,-25.391,4.883,0.000
1621213381.244,-41.016,-62.012,-20.020,-12.695,0.000
1621213381.248,-32.227,-52.246,-26.367,-13.672,0.000
1621213381.252,-31.738,-43.945,-33.691,-20.508,0.000
1621213381.256,-28.809,-33.691,-30.762,-10.742,0.000
1621213381.260,-12.207,-38.574,-24.902,-1.465,0.000
1621213381.264,-3.418,-52.246,-25.391,-13.184,0.000
1621213381.268,-10.254,-54.688,-24.902,-25.879,0.000
1621213381.272,-21.973,-46.875,-26.855,-21.973,0.000
1621213381.276,-5.859,-36.133,-29.785,-0.488,0.000
1621213381.279,2.930,-29.297,-26.367,5.371,0.000
1621213381.283,-9.277,-31.738,-28.320,-8.789,0.000
1621213381.287,-4.395,-32.227,-34.668,-22.949,0.000
1621213381.291,2.930,-33.691,-29.785,-5.859,0.000
1621213381.295,-15.625,-37.109,-35.156,7.324,0.000
1621213381.299,-21.484,-27.344,-43.457,-9.277,0.000
1621213381.303,-15.625,-20.996,-35.645,-19.043,0.000
1621213381.307,-22.461,-23.438,-37.598,-20.020,0.000
1621213381.311,-33.203,-29.785,-39.551,-19.043,0.000
1621213381.315,-25.879,-34.668,-34.180,-24.414,0.000
1621213381.318,-34.668,-30.273,-44.922,-32.715,0.000
1621213381.322,-47.852,-32.715,-53.223,-22.949,0.000
1621213381.326,-26.855,-37.109,-37.109,-18.555,0.000
1621213381.330,-16.113,-39.551,-37.109,-20.020,0.000
1621213381.334,-18.555,-46.387,-36.133,-22.461,0.000
1621213381.338,-20.020,-39.062,-36.621,-16.113,0.000
1621213381.342,-20.508,-36.133,-40.527,-11.230,0.000
1621213381.346,-20.996,-36.621,-36.621,-18.066,0.000
1621213381.350,-20.020,-31.250,-40.039,-25.391,0.000
1621213381.354,-18.555,-32.227,-46.875,-26.367,0.000
1621213381.358,-17.578,-31.738,-49.316,-16.602,0.000
1621213381.361,-30.273,-34.668,-45.898,-23.926,0.000
1621213381.365,-23.438,-38.086,-38.574,-30.762,0.000
1621213381.369,-13.672,-24.902,-42.480,-32.715,0.000
1621213381.373,-16.602,-29.297,-41.992,-27.832,0.000
1621213381.377,-13.184,-41.504,-35.645,-18.555,0.000
1621213381.381,-10.742,-29.297,-38.086,-18.066,0.000
1621213381.385,-17.578,-27.344,-33.203,-19.531,0.000
1621213381.389,-25.879,-34.180,-36.621,-24.414,0.000
1621213381.393,-9.766,-36.133,-41.504,-14.160,0.000
1621213381.397,-8.301,-37.109,-31.250,-10.254,0.000
1621213381.401,-11.230,-35.156,-36.621,-23.926,0.000
1621213381.404,-12.695,-24.902,-41.504,-28.809,0.000
1621213381.408,-7.812,-21.973,-43.945,-13.672,0.000
1621213381.412,-13.184,-28.320,-46.387,-12.207,0.000
1621213381.416,-14.160,-24.414,-37.109,-26.367,0.000
1621213381.420,-10.742,-31.738,-35.645,-16.113,0.000
1621213381.424,-17.090,-37.109,-41.504,-14.160,0.000
1621213381.428,-6.836,-31.250,-49.805,-12.695,0.000
1621213381.432,-11.230,-33.203,-45.410,-19.531,0.000
1621213381.436,-11.230,-38.574,-40.527,-31.738,0.000
1621213381.440,6.348,-32.715,-53.223,-23.926,0.000
1621213381.443,-14.160,-33.203,-49.316,-22.461,0.000
1621213381.447,-15.625,-33.691,-45.898,-22.461,0.000
1621213381.451,-12.695,-26.855,-42.969,-20.020,0.000
1621213381.455,-29.297,-33.691,-48.828,-18.066,0.000
1621213381.459,-24.414,-40.527,-55.664,-10.254,0.000
1621213381.463,-28.809,-41.504,-43.457,-20.020,0.000
1621213381.467,-32.227,-38.086,-44.434,-31.738,0.000
1621213381.471,-37.109,-41.992,-42.969,-32.715,0.000
1621213381.475,-30.273,-39.062,-40.527,-29.785,0.000
1621213381.479,-14.648,-31.738,-41.504,-16.113,0.000
1621213381.483,-15.625,-32.715,-42.480,-16.113,0.000
1621213381.486,-15.137,-36.621,-50.781,-9.766,0.000
1621213381.490,-5.859,-36.133,-55.664,-15.137,0.000
1621213381.494,-2.441,-20.020,-42.480,-28.809,0.000
1621213381.498,-8.301,-13.672,-35.645,-24.414,0.000
1621213381.502,-13.672,-26.855,-32.227,-17.578,0.000
1621213381.506,-19.043,-34.180,-29.785,-9.277,0.000
1621213381.510,-14.160,-23.926,-36.621,-12.207,0.000
1621213381.514,-12.207,-18.555,-35.645,-18.066,0.000
1621213381.518,-16.113,-28.809,-36.621,-19.531,0.000
1621213381.522,-8.301,-23.438,-49.316,-16.113,0.000
1621213381.526,-7.812,-24.414,-52.246,-18.066,0.000
1621213381.529,-12.695,-32.227,-45.410,-10.742,0.000
1621213381.533,-3.906,-26.855,-53.223,-26.367,0.000
1621213381.537,-6.348,-29.297,-44.922,-38.574,0.000
1621213381.541,-2.930,-20.996,-38.086,-20.020,0.000
1621213381.545,19.043,-19.043,-39.062,-5.371,0.000
1621213381.549,-12.695,-24.414,-22.461,-19.043,0.000
1621213381.553,-37.109,-35.156,-31.738,-45.898,0.000
1621213381.557,-27.832,-38.574,-38.086,-34.668,0.000
1621213381.561,-29.785,-22.949,-26.367,-21.484,0.000
1621213381.565,-39.062,-20.996,-27.832,-52.246,0.000
1621213381.568,-41.504,-32.227,-31.250,-64.453,0.000
1621213381.572,-44.922,-46.875,-30.762,-49.316,0.000
1621213381.576,-64.453,-44.922,-25.391,-50.781,0.000
1621213381.580,-62.988,-35.156,-27.832,-54.199,0.000
1621213381.584,-58.105,-47.363,-32.715,-53.223,0.000
1621213381.588,-38.574,-47.852,-48.340,-51.758,0.000
1621213381.592,-26.367,-39.551,-50.293,-39.062,0.000
1621213381.596,-33.203,-46.387,-16.602,-18.066,0.000
1621213381.600,-29.297,-43.945,-12.695,-20.020,0.000
1621213381.604,-30.273,-38.086,-28.320,-22.461,0.000
1621213381.608,-12.695,-36.621,-22.949,-5.371,0.000
1621213381.611,-8.301,-34.668,-17.090,-12.695,0.000
1621213381.615,-17.578,-32.715,-22.461,-19.531,0.000
1621213381.619,-11.230,-39.551,-36.621,-16.113,0.000
1621213381.623,-3.418,-41.504,-35.645,-13.184,0.000
1621213381.627,-16.113,-30.273,-36.133,-6.348,0.000
1621213381.631,-16.602,-35.645,-29.785,-18.066,0.000
1621213381.635,-19.043,-41.016,-18.555,-17.578,0.000
1621213381.639,-26.855,-35.156,-33.203,-9.277,0.000
1621213381.643,-15.137,-26.855,-42.969,-17.090,0.000
1621213381.647,-6.836,-28.320,-41.016,0.977,0.000
1621213381.651,-5.371,-22.461,-30.762,6.348,0.000
1621213381.654,2.441,-14.160,-28.809,-15.625,0.000
1621213381.658,-7.324,-37.109,-43.945,-17.578,0.000
1621213381.662,-9.766,-36.133,-38.086,8.789,0.000
1621213381.666,-9.277,-33.203,-30.762,-0.488,0.000
1621213381.670,-12.207,-41.504,-34.668,-14.160,0.000
1621213381.674,2.441,-24.902,-25.391,6.348,0.000
1621213381.678,5.859,-21.484,-36.133,-0.488,0.000
1621213381.682,-15.137,-30.762,-47.363,-16.113,0.000
1621213381.686,-26.855,-31.250,-40.527,-13.184,0.000
1621213381.690,-35.645,-37.598,-46.387,-20.508,0.000
1621213381.693,-39.551,-46.387,-46.875,-20.508,0.000
1621213381.697,-24.902,-41.992,-45.898,-29.785,0.000
1621213381.701,-23.926,-34.180,-35.156,-52.246,0.000
1621213381.705,-24.902,-48.340,-35.156,-25.879,0.000
1621213381.709,-29.297,-47.852,-47.363,-17.090,0.000
1621213381.713,-41.016,-30.762,-44.922,-55.176,0.000
1621213381.717,-29.785,-35.645,-42.969,-44.922,0.000
1621213381.721,-33.691,-42.480,-46.387,-17.578,0.000
1621213381.725,-37.598,-34.668,-44.922,-19.043,0.000
1621213381.729,-36.133,-26.367,-44.922,-18.555,0.000
1621213381.733,-36.133,-16.113,-50.293,-10.254,0.000
1621213381.736,-39.551,-32.715,-57.129,-21.973,0.000
1621213381.740,-58.594,-37.598,-46.875,-48.340,0.000
1621213381.744,-49.805,-27.832,-39.551,-34.668,0.000
1621213381.748,-59.082,-33.203,-26.855,-47.852,0.000
1621213381.752,-89.355,-26.855,-22.949,-74.707,0.000
1621213381.756,-121.094,-23.438,-25.391,-91.309,0.000
1621213381.760,-142.578,-38.086,-30.762,-122.070,0.000
1621213381.764,-139.160,-8.301,-39.062,-128.418,0.000
1621213381.768,-143.066,17.578,-27.832,-129.395,0.000
1621213381.772,-163.574,10.742,-28.809,-167.480,0.000
1621213381.776,-217.285,18.555,-26.367,-208.984,0.000
1621213381.779,-255.859,17.090,-34.180,-242.188,0.000
1621213381.783,-247.559,19.043,-48.828,-249.023,0.000
1621213381.787,-251.953,23.438,-44.922,-257.324,0.000
1621213381.791,-274.902,31.738,-47.363,-256.348,0.000
1621213381.795,-267.090,39.551,-53.223,-252.930,0.000
1621213381.799,-261.230,32.227,-68.848,-252.441,0.000
1621213381.803,-253.906,28.809,-80.566,-237.793,0.000
1621213381.807,-217.773,40.039,-76.172,-227.539,0.000
1621213381.811,-211.426,51.758,-84.961,-211.426,0.000
1621213381.815,-205.566,49.805,-101.074,-185.059,0.000
1621213381.818,-168.457,45.410,-105.957,-183.105,0.000
1621213381.822,-142.578,30.273,-104.004,-179.688,0.000
1621213381.826,-125.000,20.020,-117.188,-135.742,0.000
1621213381.830,-96.191,12.207,-124.512,-91.797,0.000
1621213381.834,-47.852,5.859,-115.234,-68.359,0.000
1621213381.838,-35.645,6.836,-108.398,-75.195,0.000
1621213381.842,-36.133,-7.324,-122.559,-51.758,0.000
1621213381.846,-3.906,-25.879,-108.887,-46.387,0.000
1621213381.850,4.395,-30.273,-117.676,-21.973,0.000
1621213381.854,13.672,-24.902,-145.996,26.855,0.000
1621213381.858,17.578,-34.180,-130.859,6.348,0.000
1621213381.861,49.805,-38.086,-125.977,27.832,0.000
1621213381.865,62.988,-35.645,-128.418,50.781,0.000
1621213381.869,59.082,-46.387,-133.301,23.438,0.000
1621213381.873,65.918,-54.688,-114.258,27.832,0.000
1621213381.877,57.129,-57.617,-106.445,31.250,0.000
1621213381.881,68.848,-55.664,-124.023,41.504,0.000
1621213381.885,66.406,-65.918,-108.398,61.035,0.000
1621213381.889,79.102,-68.848,-86.426,57.129,0.000
1621213381.893,78.613,-61.035,-105.957,58.594,0.000
1621213381.897,77.637,-70.312,-100.098,56.641,0.000
1621213381.901,87.402,-75.195,-86.914,37.109,0.000
1621213381.904,77.148,-71.289,-92.285,62.500,0.000
1621213381.908,69.824,-86.914,-89.355,89.844,0.000
1621213381.912,83.984,-79.102,-94.238,64.941,0.000
1621213381.916,91.797,-58.105,-78.613,52.734,0.000
1621213381.920,72.754,-72.754,-66.895,47.852,0.000
1621213381.924,50.293,-75.195,-80.566,61.523,0.000
1621213381.928,50.781,-66.406,-74.707,43.945,0.000
1621213381.932,64.453,-62.988,-72.266,35.645,0.000
1621213381.936,67.383,-56.152,-77.637,61.035,0.000
1621213381.940,66.895,-66.895,-55.664,41.016,0.000
1621213381.943,67.871,-73.730,-50.293,33.203,0.000
1621213381.947,59.570,-59.082,-49.805,49.805,0.000
1621213381.951,64.941,-49.805,-55.176,61.035,0.000
1621213381.955,76.172,-64.941,-48.828,49.805,0.000
1621213381.959,66.895,-52.734,-51.758,50.293,0.000
1621213381.963,48.340,-36.621,-61.523,63.965,0.000
1621213381.967,57.617,-49.805,-49.805,44.922,0.000
1621213381.971,79.590,-54.688,-61.523,27.832,0.000
1621213381.975,62.500,-54.688,-50.781,38.574,0.000
1621213381.979,57.129,-50.781,-43.457,30.762,0.000
1621213381.983,69.824,-49.805,-55.176,33.203,0.000
1621213381.986,66.406,-50.781,-53.711,33.691,0.000
1621213381.990,55.176,-45.410,-52.734,23.438,0.000
1621213381.994,32.227,-51.270,-40.527,25.879,0.000
1621213381.998,25.879,-59.082,-34.180,34.180,0.000
1621213382.002,30.273,-55.176,-47.363,44.922,0.000
1621213382.006,36.133,-45.898,-43.457,25.879,0.000
1621213382.010,24.902,-37.598,-48.828,20.020,0.000
1621213382.014,14.648,-52.246,-50.293,13.184,0.000
1621213382.018,10.742,-57.129,-37.598,1.465,0.000
1621213382.022,-6.836,-51.270,-41.992,-2.930,0.000
1621213382.026,-17.578,-53.223,-48.340,-3.906,0.000
1621213382.029,-12.207,-58.594,-51.758,-5.371,0.000
1621213382.033,-3.418,-65.918,-49.316,-23.438,0.000
1621213382.037,-17.578,-63.477,-50.293,-16.602,0.000
1621213382.041,-15.137,-57.129,-53.223,-8.301,0.000
1621213382.045,-6.348,-51.758,-54.688,0.000,0.000
1621213382.049,-15.625,-44.434,-48.340,-0.488,0.000
1621213382.053,-14.648,-43.945,-51.758,-2.930,0.000
1621213382.057,-4.883,-48.340,-57.129,1.953,0.000
1621213382.061,-1.953,-47.363,-48.828,0.488,0.000
1621213382.065,-6.836,-49.316,-46.875,-3.906,0.000
1621213382.068,-4.395,-44.922,-43.945,1.465,0.000
1621213382.072,-3.906,-46.387,-41.016,4.395,0.000
1621213382.076,-10.254,-55.664,-42.969,-0.977,0.000
1621213382.080,-6.348,-48.340,-38.086,6.836,0.000
1621213382.084,-4.883,-37.109,-38.574,10.254,0.000
1621213382.088,-12.695,-49.805,-37.598,2.441,0.000
1621213382.092,-7.324,-59.082,-39.551,8.789,0.000
1621213382.096,-5.859,-41.504,-44.434,11.719,0.000
1621213382.100,-4.395,-25.879,-37.598,0.977,0.000
1621213382.104,1.465,-31.250,-28.320,5.859,0.000
1621213382.108,2.441,-44.922,-30.762,5.859,0.000
1621213382.111,-5.859,-43.945,-37.598,-3.906,0.000
1621213382.115,-8.301,-35.156,-34.180,0.977,0.000
1621213382.119,6.836,-44.434,-36.621,1.465,0.000
1621213382.123,8.789,-47.363,-43.457,2.930,0.000
1621213382.127,7.812,-44.434,-45.410,-7.812,0.000
1621213382.131,-6.348,-48.828,-32.715,-8.789,0.000
1621213382.135,-15.625,-45.898,-30.273,2.441,0.000
1621213382.139,-2.930,-52.246,-40.039,-9.277,0.000
1621213382.143,-4.883,-52.734,-45.410,-11.719,0.000
1621213382.147,-10.254,-37.598,-44.922,-14.648,0.000
1621213382.151,-14.648,-42.969,-36.621,-10.742,0.000
1621213382.154,-15.137,-52.734,-36.621,-12.207,0.000
1621213382.158,-17.578,-39.551,-36.621,-17.578,0.000
1621213382.162,-41.016,-44.434,-36.621,-10.742,0.000
1621213382.166,-36.621,-41.504,-33.691,-15.137,0.000
1621213382.170,-20.508,-53.223,-31.250,-13.184,0.000
1621213382.174,-6.836,-61.523,-36.621,-7.812,0.000
1621213382.178,-18.066,-37.109,-44.922,-9.277,0.000
1621213382.182,-29.297,-27.832,-45.898,-16.113,0.000
1621213382.186,-29.297,-27.832,-42.969,-31.738,0.000
1621213382.190,-24.414,-34.180,-42.969,-28.809,0.000
1621213382.193,-24.902,-44.922,-41.016,-13.672,0.000
1621213382.197,-38.574,-30.762,-41.504,-18.555,0.000
1621213382.201,-21.484,-24.414,-40.527,-21.484,0.000
1621213382.205,-12.207,-31.250,-37.598,-16.113,0.000
1621213382.209,-15.137,-16.113,-40.039,-16.602,0.000
1621213382.213,-5.371,-8.789,-40.039,-7.324,0.000
1621213382.217,1.465,-19.531,-32.715,-9.766,0.000
1621213382.221,-21.484,-20.996,-37.109,-15.625,0.000
1621213382.225,-47.363,-23.926,-46.875,-8.789,0.000
1621213382.229,-37.109,-34.668,-44.434,-18.066,0.000
1621213382.233,-33.691,-43.457,-41.992,-30.273,0.000
1621213382.236,-25.391,-29.785,-44.922,-23.438,0.000
1621213382.240,-10.742,-16.602,-38.086,-16.602,0.000
1621213382.244,2.441,-9.277,-37.598,-19.531,0.000
1621213382.248,-5.859,-5.859,-42.480,-19.531,0.000
1621213382.252,-20.020,-26.367,-44.434,-17.578,0.000
1621213382.256,-13.672,-37.598,-47.363,-9.277,0.000
1621213382.260,-7.812,-17.578,-43.945,-3.906,0.000
1621213382.264,-14.648,-20.508,-39.062,-8.301,0.000
1621213382.268,-13.672,-34.668,-35.645,5.859,0.000
1621213382.272,-11.230,-28.320,-35.645,-0.977,0.000
1621213382.276,-8.789,-23.926,-39.062,-20.996,0.000
1621213382.279,4.883,-26.855,-41.016,-21.484,0.000
1621213382.283,-2.930,-26.367,-41.016,-9.766,0.000
1621213382.287,-18.066,-20.508,-41.992,-6.836,0.000
1621213382.291,-14.160,-12.695,-46.387,-29.297,0.000
1621213382.295,-7.812,-15.625,-49.316,-30.273,0.000
1621213382.299,-0.488,-26.855,-38.574,-14.160,0.000
1621213382.303,-1.465,-29.297,-32.227,-22.461,0.000
1621213382.307,0.488,-20.020,-40.039,-16.113,0.000
1621213382.311,3.418,-26.367,-40.527,-16.113,0.000
1621213382.315,3.906,-39.551,-42.969,-22.949,0.000
1621213382.319,-12.695,-36.133,-44.434,-26.367,0.000
1621213382.322,-14.160,-21.484,-50.293,-17.578,0.000
1621213382.326,-3.418,-22.949,-55.664,3.418,0.000
1621213382.330,-4.395,-29.785,-41.016,-12.695,0.000
1621213382.334,-4.395,-22.461,-46.875,-38.574,0.000
1621213382.338,-30.762,-33.203,-52.246,-27.832,0.000
1621213382.342,-31.250,-48.828,-41.016,-20.508,0.000
1621213382.346,-24.902,-40.039,-41.504,-17.090,0.000
1621213382.350,-40.527,-29.785,-44.922,-21.973,0.000
1621213382.354,-29.785,-18.555,-43.457,-20.020,0.000
1621213382.358,-29.297,-22.461,-44.922,-8.301,0.000
1621213382.361,-41.504,-34.668,-46.875,-11.719,0.000
1621213382.365,-34.180,-42.969,-41.504,-20.996,0.000
1621213382.369,-26.855,-50.293,-45.410,-31.250,0.000
1621213382.373,-31.738,-43.457,-50.293,-29.785,0.000
1621213382.377,-32.715,-38.574,-57.129,-23.926,0.000
1621213382.381,-42.480,-34.668,-45.898,-19.531,0.000
1621213382.385,-41.504,-40.527,-28.809,-29.785,0.000
1621213382.389,-37.598,-50.781,-47.363,-36.621,0.000
1621213382.393,-42.969,-42.969,-51.270,-19.043,0.000
1621213382.397,-46.387,-47.852,-34.180,-6.836,0.000
1621213382.401,-44.922,-51.270,-36.621,-7.324,0.000
1621213382.404,-44.922,-45.898,-38.574,-5.859,0.000
1621213382.408,-38.574,-47.363,-40.527,-6.348,0.000
1621213382.412,-32.227,-44.922,-48.340,-15.137,0.000
1621213382.416,-34.180,-47.363,-53.711,-30.762,0.000
1621213382.420,-36.133,-48.828,-47.363,-36.621,0.000
1621213382.424,-24.414,-45.410,-47.852,-26.855,0.000
1621213382.428,-26.855,-39.551,-50.293,-9.766,0.000
1621213382.432,-24.414,-32.715,-47.363,-16.113,0.000
1621213382.436,-25.879,-40.039,-52.734,-20.996,0.000
1621213382.440,-39.551,-36.133,-51.270,-14.648,0.000
1621213382.444,-35.156,-35.156,-50.293,-1.953,0.000
1621213382.447,-31.250,-36.621,-59.082,-5.859,0.000
1621213382.451,-30.273,-37.598,-58.105,-18.555,0.000
1621213382.455,-25.391,-40.527,-54.688,-3.418,0.000
1621213382.459,-26.855,-32.715,-50.293,-2.930,0.000
1621213382.463,-31.738,-35.156,-38.574,-15.625,0.000
1621213382.467,-43.945,-39.062,-46.387,-19.043,0.000
1621213382.471,-46.387,-42.969,-51.270,-25.879,0.000
1621213382.475,-26.367,-48.340,-37.109,-17.578,0.000
1621213382.479,-13.184,-37.598,-30.273,-11.719,0.000
1621213382.483,-18.066,-38.086,-38.086,-4.395,0.000
1621213382.486,-24.414,-42.969,-35.645,2.441,0.000
1621213382.490,-21.484,-37.109,-39.551,-5.371,0.000
1621213382.494,-25.879,-43.945,-49.316,-6.348,0.000
1621213382.498,-16.113,-48.828,-53.223,-5.371,0.000
1621213382.502,-11.230,-34.180,-46.387,-7.324,0.000
1621213382.506,-23.438,-27.344,-44.922,-17.090,0.000
1621213382.510,-19.531,-49.805,-56.152,-10.742,0.000
1621213382.514,-20.508,-42.480,-47.852,-5.859,0.000
1621213382.518,-25.391,-28.320,-43.457,-9.277,0.000
1621213382.522,-17.090,-33.203,-45.898,-9.277,0.000
1621213382.526,-25.391,-38.574,-38.574,-22.461,0.000
1621213382.529,-21.484,-40.039,-37.109,-20.020,0.000
1621213382.533,-11.719,-33.691,-37.109,-12.207,0.000
1621213382.537,-19.043,-36.621,-49.805,-17.090,0.000
1621213382.541,-20.020,-41.504,-52.734,-15.137,0.000
1621213382.545,-30.762,-29.297,-38.574,-18.066,0.000
1621213382.549,-37.598,-30.762,-41.504,-24.902,0.000
1621213382.553,-10.742,-44.922,-49.316,0.488,0.000
1621213382.557,-5.371,-35.645,-41.992,21.973,0.000
1621213382.561,-18.555,-35.156,-39.551,-12.207,0.000
1621213382.565,-19.531,-38.574,-49.805,-41.016,0.000
1621213382.568,-24.902,-25.879,-49.805,-33.691,0.000
1621213382.572,-37.109,-23.926,-52.734,-42.480,0.000
1621213382.576,-17.578,-11.719,-66.895,-22.461,0.000
1621213382.580,-11.230,-12.695,-58.105,-9.766,0.000
1621213382.584,-25.879,-21.973,-66.895,-35.156,0.000
1621213382.588,-14.648,-22.949,-73.242,-49.316,0.000
1621213382.592,-16.602,-15.625,-60.547,-46.387,0.000
1621213382.596,-4.883,-2.930,-63.477,-23.438,0.000
1621213382.600,-11.719,-17.578,-64.941,-35.156,0.000
1621213382.604,-7.324,-21.484,-69.336,-23.926,0.000
1621213382.608,8.789,-13.672,-65.430,-6.836,0.000
1621213382.611,-10.254,-21.973,-57.129,-14.160,0.000
1621213382.615,-17.578,-17.578,-59.082,-6.348,0.000
1621213382.619,-8.301,-7.812,-57.129,-14.648,0.000
1621213382.623,-3.418,-14.160,-53.223,-27.344,0.000
1621213382.627,11.719,-12.695,-51.270,-0.488,0.000
1621213382.631,8.789,-17.090,-51.758,-2.930,0.000
1621213382.635,21.973,-22.949,-45.410,-11.719,0.000
1621213382.639,31.738,-29.785,-41.992,4.395,0.000
1621213382.643,24.902,-23.926,-43.457,-2.441,0.000
1621213382.647,28.320,-7.324,-48.340,-9.766,0.000
1621213382.651,20.996,-4.395,-51.270,1.465,0.000
1621213382.654,16.113,-7.812,-50.293,-0.488,0.000
1621213382.658,1.465,-26.367,-53.711,4.883,0.000
1621213382.662,-3.418,-34.668,-50.293,8.301,0.000
1621213382.666,-6.836,-23.926,-47.363,-21.484,0.000
1621213382.670,-5.859,-26.367,-51.270,-18.066,0.000
1621213382.674,6.836,-23.438,-59.570,-5.371,0.000
1621213382.678,7.812,-10.742,-61.523,-12.695,0.000
1621213382.682,5.371,-5.859,-64.453,-9.766,0.000
1621213382.686,4.883,-8.301,-49.316,-2.930,0.000
1621213382.690,-0.488,-18.066,-39.062,3.906,0.000
1621213382.693,-9.766,-21.973,-43.945,-11.230,0.000
1621213382.697,-14.648,-17.578,-48.340,-17.090,0.000
1621213382.701,-15.137,-22.461,-53.223,-7.812,0.000
1621213382.705,-19.043,-27.344,-44.434,-5.371,0.000
1621213382.709,-8.789,-31.738,-44.434,-1.953,0.000
1621213382.713,-1.953,-36.621,-52.246,-11.719,0.000
1621213382.717,-22.949,-23.926,-51.758,-27.344,0.000
1621213382.721,-6.348,-21.484,-48.340,-14.160,0.000
1621213382.725,4.395,-17.578,-47.852,-1.953,0.000
1621213382.729,-19.043,-33.691,-33.203,-18.066,0.000
1621213382.733,-15.137,-39.551,-36.621,-12.695,0.000
1621213382.736,-11.719,-29.297,-43.945,-5.371,0.000
1621213382.740,-16.602,-35.645,-31.250,-6.348,0.000
1621213382.744,-22.461,-21.973,-37.598,-3.418,0.000
1621213382.748,-21.484,-18.555,-46.875,-11.230,0.000
1621213382.752,-19.531,-29.297,-45.410,-16.602,0.000
1621213382.756,-18.066,-36.133,-47.363,-10.742,0.000
1621213382.760,-14.160,-30.762,-50.781,-16.113,0.000
1621213382.764,-7.812,-25.391,-45.898,-27.344,0.000
1621213382.768,-7.812,-37.598,-48.340,-30.762,0.000
1621213382.772,-13.184,-34.668,-43.945,-15.625,0.000
1621213382.776,-11.230,-27.344,-35.156,0.000,0.000
1621213382.779,-18.555,-33.203,-41.504,-16.113,0.000
1621213382.783,-17.090,-19.531,-48.340,-29.785,0.000
1621213382.787,-11.230,-24.902,-42.480,-26.367,0.000
1621213382.791,-21.973,-32.227,-40.527,-26.367,0.000
1621213382.795,-27.344,-23.438,-44.434,-28.809,0.000
1621213382.799,-25.879,-29.297,-44.434,-29.785,0.000
1621213382.803,-22.461,-33.691,-44.434,-31.738,0.000
1621213382.807,-15.625,-22.461,-55.176,-28.320,0.000
1621213382.811,-11.719,-17.578,-42.969,-26.367,0.000
1621213382.815,-24.902,-17.578,-27.832,-34.180,0.000
1621213382.819,-29.297,-24.902,-41.504,-33.691,0.000
1621213382.822,-4.883,-21.973,-46.387,-13.184,0.000
1621213382.826,6.836,-15.625,-39.551,-3.906,0.000
1621213382.830,-0.488,-34.180,-39.551,-11.230,0.000
1621213382.834,-9.766,-31.250,-42.969,-18.555,0.000
1621213382.838,-24.414,-20.020,-26.855,-31.250,0.000
1621213382.842,-19.531,-23.438,-27.344,-33.203,0.000
1621213382.846,-11.719,-32.715,-48.340,-15.137,0.000
1621213382.850,-10.254,-32.715,-33.691,-5.371,0.000
1621213382.854,-2.930,-20.996,-33.691,-13.672,0.000
1621213382.858,-4.395,-27.344,-45.410,-19.043,0.000
1621213382.861,-8.789,-26.855,-40.527,-19.531,0.000
1621213382.865,-10.254,-18.555,-45.898,-25.391,0.000
1621213382.869,-16.602,-13.672,-42.969,-24.414,0.000
1621213382.873,-15.625,-20.508,-29.297,-10.742,0.000
1621213382.877,-11.719,-31.250,-35.156,-13.672,0.000
1621213382.881,-17.090,-20.020,-43.945,-38.086,0.000
1621213382.885,-18.066,-26.855,-36.133,-24.902,0.000
1621213382.889,-2.441,-35.645,-30.762,-10.742,0.000
1621213382.893,-5.371,-24.414,-29.785,-20.996,0.000
1621213382.897,0.977,-17.090,-23.438,-0.488,0.000
1621213382.901,13.672,-19.043,-31.250,-9.277,0.000
1621213382.904,-3.418,-21.973,-36.621,-28.809,0.000
1621213382.908,-21.484,-22.949,-39.062,-26.855,0.000
1621213382.912,-19.043,-28.320,-37.109,-27.344,0.000
1621213382.916,-19.043,-21.973,-42.480,-28.320,0.000
1621213382.920,-33.691,-23.926,-40.039,-37.109,0.000
1621213382.924,-30.273,-28.809,-36.133,-39.062,0.000
1621213382.928,-18.555,-31.250,-41.504,-28.320,0.000
1621213382.932,-14.648,-33.691,-49.316,-24.414,0.000
1621213382.936,-18.066,-28.809,-56.152,-15.625,0.000
1621213382.940,-24.414,-23.926,-45.898,-21.484,0.000
1621213382.943,-10.254,-26.367,-35.645,-27.832,0.000
1621213382.947,-18.555,-42.969,-41.016,-25.391,0.000
1621213382.951,-33.691,-32.227,-44.922,-26.367,0.000
1621213382.955,-20.508,-15.137,-44.922,-24.902,0.000
1621213382.959,-9.277,-16.602,-50.781,-23.926,0.000
1621213382.963,-15.137,-17.090,-42.480,-34.180,0.000
1621213382.967,-24.414,-22.949,-43.457,-54.199,0.000
1621213382.971,-15.137,-33.203,-57.617,-44.434,0.000
1621213382.975,-13.184,-39.062,-54.199,-9.277,0.000
1621213382.979,-16.602,-35.645,-41.016,-11.230,0.000
1621213382.983,-24.902,-28.320,-43.945,-26.367,0.000
1621213382.986,-15.137,-39.551,-44.922,-6.836,0.000
1621213382.990,-23.438,-44.922,-41.504,-12.695,0.000
1621213382.994,-23.926,-27.832,-62.012,-18.066,0.000
1621213382.998,-15.625,-27.832,-44.922,-14.160,0.000
1621213383.002,-29.297,-42.480,-33.691,-30.273,0.000
1621213383.006,-23.926,-44.434,-36.133,-19.043,0.000
1621213383.010,-4.395,-39.062,-33.203,-16.602,0.000
1621213383.014,-6.348,-39.551,-58.105,-17.090,0.000
1621213383.018,-28.320,-46.875,-46.875,-2.441,0.000
1621213383.022,-24.902,-33.691,-31.250,-2.441,0.000
1621213383.026,-21.484,-16.113,-41.504,-14.160,0.000
1621213383.029,-13.672,-21.973,-29.297,-12.207,0.000
1621213383.033,-2.930,-32.715,-22.461,-14.160,0.000
1621213383.037,-13.184,-30.762,-35.645,-23.438,0.000
1621213383.041,13.184,-20.996,-43.945,-13.672,0.000
1621213383.045,24.902,-19.531,-41.016,9.766,0.000
1621213383.049,-0.488,-38.086,-20.020,17.578,0.000
1621213383.053,-21.973,-46.875,-31.250,-0.488,0.000
1621213383.057,-38.086,-37.598,-36.133,-11.230,0.000
1621213383.061,-56.152,-41.504,-18.555,-20.020,0.000
1621213383.065,-59.082,-42.969,-29.785,-40.039,0.000
1621213383.068,-58.105,-45.410,-32.227,-53.223,0.000
1621213383.072,-57.617,-46.875,-21.484,-62.500,0.000
1621213383.076,-49.805,-43.945,-23.438,-39.062,0.000
1621213383.080,-58.105,-42.969,-52.734,-19.531,0.000
1621213383.084,-64.941,-32.715,-54.688,-51.758,0.000
1621213383.088,-46.387,-32.715,-41.504,-34.668,0.000
1621213383.092,-46.387,-39.062,-41.504,-14.160,0.000
1621213383.096,-54.199,-34.668,-56.152,-15.625,0.000
1621213383.100,-46.387,-31.250,-47.852,-19.043,0.000
1621213383.104,-37.109,-32.715,-52.734,-33.203,0.000
1621213383.108,-36.133,-32.227,-55.664,-13.672,0.000
1621213383.111,-24.902,-31.738,-41.504,-5.371,0.000
1621213383.115,-12.695,-35.156,-37.109,-9.766,0.000
1621213383.119,-22.949,-32.227,-26.367,-13.184,0.000
1621213383.123,-29.785,-36.621,-33.203,-4.395,0.000
1621213383.127,-22.949,-37.598,-36.621,-3.906,0.000
1621213383.131,-22.949,-28.809,-26.855,-28.809,0.000
1621213383.135,-37.109,-27.344,-33.203,-23.926,0.000
1621213383.139,-30.762,-27.832,-33.203,-12.207,0.000
1621213383.143,-5.859,-26.855,-27.832,-3.906,0.000
1621213383.147,-10.742,-44.434,-19.531,1.465,0.000
1621213383.151,-13.672,-47.363,-21.973,2.930,0.000
1621213383.154,-8.301,-38.086,-34.668,0.488,0.000
1621213383.158,-9.277,-41.016,-24.414,3.906,0.000
1621213383.162,-8.789,-30.273,-18.066,4.883,0.000
1621213383.166,-3.906,-18.066,-28.320,-14.160,0.000
1621213383.170,6.348,-36.621,-27.832,-5.859,0.000
1621213383.174,-5.859,-38.086,-21.484,4.883,0.000
1621213383.178,-14.648,-35.156,-20.996,-2.930,0.000
1621213383.182,-20.020,-42.480,-25.391,-6.348,0.000
1621213383.186,-18.555,-27.832,-30.762,-11.719,0.000
1621213383.190,-14.160,-28.320,-27.344,-20.996,0.000
1621213383.193,-2.441,-23.438,-29.785,0.977,0.000
1621213383.197,6.348,-22.949,-36.621,0.977,0.000
1621213383.201,4.883,-22.949,-27.344,-17.090,0.000
1621213383.205,-11.719,-25.879,-27.344,-8.789,0.000
1621213383.209,-13.672,-36.621,-23.438,-2.930,0.000
1621213383.213,-8.301,-41.992,-22.949,-9.766,0.000
1621213383.217,-9.277,-43.457,-26.855,-9.277,0.000
1621213383.221,-16.113,-26.367,-30.273,-12.207,0.000
1621213383.225,-22.461,-19.531,-39.551,-20.996,0.000
1621213383.229,-11.230,-29.785,-37.109,-13.672,0.000
1621213383.233,-16.113,-32.715,-37.109,-13.672,0.000
1621213383.236,-28.320,-35.156,-35.156,-11.230,0.000
1621213383.240,-13.184,-43.945,-34.668,0.977,0.000
1621213383.244,-10.742,-47.363,-29.297,15.137,0.000
1621213383.248,-15.137,-37.109,-24.414,8.301,0.000
1621213383.252,-3.418,-30.273,-31.738,-9.277,0.000
1621213383.256,-2.930,-40.039,-27.832,-4.883,0.000
1621213383.260,-6.348,-44.434,-31.250,7.324,0.000
1621213383.264,-2.930,-33.691,-40.527,0.488,0.000
1621213383.268,-8.301,-24.902,-44.922,-19.531,0.000
1621213383.272,-16.113,-22.949,-34.668,-20.508,0.000
1621213383.276,-10.742,-24.902,-33.203,-17.090,0.000
1621213383.279,-6.348,-44.434,-40.527,-14.160,0.000
1621213383.283,-1.465,-37.598,-33.203,-15.625,0.000
1621213383.287,-14.160,-17.090,-30.762,-8.301,0.000
1621213383.291,-24.902,-26.855,-28.320,-13.184,0.000
1621213383.295,-10.254,-25.879,-26.855,-20.996,0.000
1621213383.299,-13.184,-33.203,-27.832,-15.137,0.000
1621213383.303,-21.973,-43.457,-26.367,-19.043,0.000
1621213383.307,-19.531,-39.062,-32.715,-16.113,0.000
1621213383.311,-12.695,-20.508,-39.062,-5.859,0.000
1621213383.315,-11.719,-9.766,-36.621,-8.789,0.000
1621213383.318,-14.648,-29.785,-33.691,-15.625,0.000
1621213383.322,-12.695,-36.133,-30.762,-19.531,0.000
1621213383.326,-5.859,-27.344,-27.832,-7.812,0.000
1621213383.330,-3.906,-26.855,-36.133,-14.648,0.000
1621213383.334,-2.441,-34.180,-45.898,-32.227,0.000
1621213383.338,-12.695,-36.621,-33.691,-10.254,0.000
1621213383.342,-26.367,-36.133,-24.902,-16.113,0.000
1621213383.346,-39.062,-43.945,-25.391,-36.133,0.000
1621213383.350,-49.805,-34.668,-26.367,-39.551,0.000
1621213383.354,-25.391,-22.949,-25.391,-42.969,0.000
1621213383.358,-24.414,-27.832,-32.227,-39.062,0.000
1621213383.361,-42.480,-28.320,-37.598,-37.109,0.000
1621213383.365,-29.297,-24.902,-28.320,-32.227,0.000
1621213383.369,-34.180,-40.039,-42.480,-31.738,0.000
1621213383.373,-28.809,-51.758,-48.828,-26.367,0.000
1621213383.377,-47.852,-33.203,-33.691,-44.922,0.000
1621213383.381,-64.453,-16.113,-42.480,-65.918,0.000
1621213383.385,-25.391,-14.648,-39.551,-40.039,0.000
1621213383.389,-31.250,-19.531,-37.598,-28.320,0.000
1621213383.393,-37.109,-27.832,-41.016,-22.461,0.000
1621213383.397,-25.879,-28.809,-22.461,-11.719,0.000
1621213383.401,4.395,-15.625,-34.180,-38.574,0.000
1621213383.404,-0.488,-18.066,-36.621,-16.113,0.000
1621213383.408,-20.020,-22.461,-21.484,22.461,0.000
1621213383.412,17.090,-16.113,-34.668,9.766,0.000
1621213383.416,3.418,-16.113,-44.922,-21.484,0.000
1621213383.420,-20.020,-16.113,-50.293,-13.672,0.000
1621213383.424,-8.789,-20.020,-45.410,9.766,0.000
1621213383.428,-22.949,-30.762,-29.297,18.066,0.000
1621213383.432,-21.484,-32.227,-26.367,1.953,0.000
1621213383.436,-12.207,-22.949,-31.738,-16.602,0.000
1621213383.440,-16.602,-20.020,-28.320,1.465,0.000
1621213383.443,-20.996,-18.555,-31.250,2.930,0.000
1621213383.447,-16.602,-10.742,-25.391,2.441,0.000
1621213383.451,-23.438,-18.066,-15.625,-0.977,0.000
1621213383.455,-18.066,-24.902,-22.461,-11.230,0.000
1621213383.459,-7.324,-20.508,-31.250,-13.184,0.000
1621213383.463,-8.301,-17.578,-32.227,-16.113,0.000
1621213383.467,-16.602,-14.648,-25.879,-7.324,0.000
1621213383.471,-29.297,-10.742,-28.809,-16.113,0.000
1621213383.475,-34.668,-19.531,-44.434,-44.434,0.000
1621213383.479,-43.945,-22.949,-54.199,-57.129,0.000
1621213383.483,-55.664,-3.906,-41.016,-45.898,0.000
1621213383.486,-37.109,4.395,-38.574,-40.039,0.000
1621213383.490,-29.785,4.395,-47.363,-42.969,0.000
1621213383.494,-53.711,20.020,-45.410,-61.523,0.000
1621213383.498,-89.355,19.043,-37.598,-78.125,0.000
1621213383.502,-125.488,20.996,-37.109,-109.375,0.000
1621213383.506,-126.953,41.992,-48.340,-124.512,0.000
1621213383.510,-131.836,45.898,-55.664,-130.371,0.000
1621213383.514,-126.953,44.434,-54.199,-134.766,0.000
1621213383.518,-137.207,47.363,-39.551,-134.766,0.000
1621213383.522,-163.086,57.617,-31.250,-167.480,0.000
1621213383.526,-186.523,63.965,-43.457,-199.707,0.000
1621213383.529,-198.730,64.941,-48.828,-198.730,0.000
1621213383.533,-207.031,62.500,-50.781,-190.430,0.000
1621213383.537,-207.520,59.082,-54.688,-192.871,0.000
1621213383.541,-180.176,56.641,-50.781,-198.242,0.000
1621213383.545,-193.359,59.570,-59.082,-210.449,0.000
1621213383.549,-186.035,66.406,-62.988,-199.219,0.000
1621213383.553,-166.016,76.172,-53.711,-180.176,0.000
1621213383.557,-189.453,64.453,-57.617,-187.988,0.000
1621213383.561,-187.012,45.410,-70.312,-185.059,0.000
1621213383.565,-141.602,43.457,-57.617,-146.484,0.000
1621213383.568,-120.605,41.504,-43.945,-126.953,0.000
1621213383.572,-98.633,43.945,-49.316,-102.539,0.000
1621213383.576,-69.336,36.621,-52.734,-82.031,0.000
1621213383.580,-69.336,20.020,-51.270,-83.008,0.000
1621213383.584,-68.359,22.949,-40.527,-61.035,0.000
1621213383.588,-71.777,15.137,-33.203,-44.434,0.000
1621213383.592,-41.504,6.836,-43.457,-63.477,0.000
1621213383.596,-15.137,1.465,-49.805,-55.176,0.000
1621213383.600,-7.812,-28.320,-39.551,-12.207,0.000
1621213383.604,-14.648,-32.715,-24.902,9.277,0.000
1621213383.608,-23.926,-36.621,-31.738,0.488,0.000
1621213383.611,-3.418,-56.641,-35.156,23.926,0.000
1621213383.615,32.227,-60.059,-20.508,44.922,0.000
1621213383.619,29.297,-59.570,-25.879,39.551,0.000
1621213383.623,20.996,-66.895,-27.832,36.621,0.000
1621213383.627,51.758,-77.637,-21.484,53.711,0.000
1621213383.631,55.176,-83.984,-27.344,71.777,0.000
1621213383.635,55.176,-78.613,-29.297,61.035,0.000
1621213383.639,56.152,-82.520,-28.809,63.965,0.000
1621213383.643,70.801,-86.914,-28.809,64.941,0.000
1621213383.647,78.125,-86.426,-25.879,68.848,0.000
1621213383.651,70.312,-99.609,-31.738,62.988,0.000
1621213383.654,63.477,-98.633,-36.621,64.453,0.000
1621213383.658,48.340,-94.727,-23.926,72.266,0.000
1621213383.662,49.805,-92.285,-23.926,63.965,0.000
1621213383.666,61.523,-89.355,-29.297,66.406,0.000
1621213383.670,73.730,-84.473,-31.250,60.547,0.000
1621213383.674,57.617,-87.402,-38.086,47.852,0.000
1621213383.678,41.992,-97.168,-29.785,60.059,0.000
1621213383.682,27.344,-92.773,-20.996,66.895,0.000
1621213383.686,35.645,-83.984,-24.414,51.758,0.000
1621213383.690,64.453,-81.055,-26.855,50.781,0.000
1621213383.693,57.129,-84.961,-28.809,50.781,0.000
1621213383.697,47.852,-76.172,-29.297,46.387,0.000
1621213383.701,34.180,-79.102,-21.973,62.500,0.000
1621213383.705,40.527,-76.660,-29.785,62.012,0.000
1621213383.709,58.105,-62.988,-32.227,54.688,0.000
1621213383.713,34.180,-76.660,-27.832,59.570,0.000
1621213383.717,34.180,-82.520,-30.762,53.223,0.000
1621213383.721,41.016,-70.801,-28.809,48.828,0.000
1621213383.725,31.250,-65.430,-24.414,52.246,0.000
1621213383.729,41.504,-62.012,-23.926,37.598,0.000
1621213383.733,52.246,-65.430,-27.344,33.691,0.000
1621213383.736,55.176,-71.289,-30.762,35.156,0.000
1621213383.740,38.574,-71.777,-29.297,41.992,0.000
1621213383.744,20.996,-71.289,-34.180,37.598,0.000
1621213383.748,25.391,-62.012,-43.457,15.137,0.000
1621213383.752,37.598,-55.176,-35.156,13.672,0.000
1621213383.756,37.109,-53.711,-27.344,30.273,0.000
1621213383.760,30.762,-51.270,-27.832,41.016,0.000
1621213383.764,19.043,-57.617,-28.809,34.668,0.000
1621213383.768,16.602,-51.758,-28.320,21.484,0.000
1621213383.772,35.156,-43.457,-35.156,14.648,0.000
1621213383.776,56.641,-40.039,-50.293,10.742,0.000
1621213383.779,44.434,-45.410,-46.387,4.883,0.000
1621213383.783,23.926,-42.480,-33.203,11.230,0.000
1621213383.787,16.113,-38.086,-23.926,39.062,0.000
1621213383.791,28.320,-36.621,-26.367,37.109,0.000
1621213383.795,26.855,-33.691,-24.902,27.832,0.000
1621213383.799,14.648,-40.527,-23.438,18.066,0.000
1621213383.803,34.180,-34.668,-27.832,14.160,0.000
1621213383.807,36.621,-36.621,-20.996,24.902,0.000
1621213383.811,27.832,-37.598,-23.926,12.207,0.000
1621213383.815,21.484,-35.156,-22.461,18.066,0.000
1621213383.818,12.695,-35.645,-22.461,20.508,0.000
1621213383.822,6.836,-30.762,-23.438,34.180,0.000
1621213383.826,10.254,-34.180,-20.996,42.480,0.000
1621213383.830,13.672,-39.062,-23.926,20.020,0.000
1621213383.834,27.344,-27.832,-21.973,22.949,0.000
1621213383.838,34.668,-14.160,-23.926,29.785,0.000
1621213383.842,5.859,-24.414,-31.250,29.785,0.000
1621213383.846,1.465,-34.180,-35.645,28.809,0.000
1621213383.850,10.254,-31.738,-29.297,8.301,0.000
1621213383.854,-7.324,-31.738,-21.973,-2.930,0.000
1621213383.858,0.000,-29.297,-23.926,18.555,0.000
1621213383.861,18.555,-27.344,-29.297,28.809,0.000
1621213383.865,16.602,-29.297,-32.715,6.348,0.000
1621213383.869,15.137,-27.832,-29.297,-2.441,0.000
1621213383.873,19.043,-23.438,-16.602,9.766,0.000
1621213383.877,4.883,-25.391,-16.602,5.371,0.000
1621213383.881,0.977,-27.344,-26.855,-6.348,0.000
1621213383.885,2.930,-28.320,-28.320,-1.465,0.000
1621213383.889,15.137,-23.438,-29.785,-20.996,0.000
1621213383.893,8.301,-20.996,-28.320,-21.484,0.000
1621213383.897,7.324,-33.691,-22.461,-8.789,0.000
1621213383.901,-4.883,-30.762,-22.949,-19.531,0.000
1621213383.904,-22.461,-27.832,-28.320,-24.414,0.000
1621213383.908,-3.906,-25.879,-32.227,-19.531,0.000
1621213383.912,-3.906,-17.578,-21.973,-7.812,0.000
1621213383.916,-12.207,-29.785,-23.438,-19.043,0.000
1621213383.920,-27.344,-30.273,-35.645,-17.578,0.000
1621213383.924,-20.508,-16.602,-41.504,-7.812,0.000
1621213383.928,-5.371,-20.020,-31.738,1.465,0.000
1621213383.932,-2.441,-22.949,-20.996,1.953,0.000
1621213383.936,-10.254,-13.184,-24.902,-5.859,0.000
1621213383.940,-11.230,-24.902,-25.879,-7.324,0.000
1621213383.943,-0.977,-34.180,-22.949,1.953,0.000
1621213383.947,15.625,-21.973,-24.414,7.324,0.000
1621213383.951,-8.789,-21.484,-24.414,-14.648,0.000
1621213383.955,-25.391,-27.344,-26.855,-27.832,0.000
1621213383.959,-16.602,-25.879,-30.273,-21.484,0.000
1621213383.963,-19.531,-26.855,-31.250,-16.113,0.000
1621213383.967,-17.090,-28.320,-28.809,-11.719,0.000
1621213383.971,-3.418,-26.855,-28.320,-9.766,0.000
1621213383.975,3.906,-23.926,-31.250,3.418,0.000
1621213383.979,-0.488,-21.484,-35.645,2.441,0.000
1621213383.983,-8.789,-23.438,-41.016,-14.160,0.000
1621213383.986,-20.020,-25.879,-36.621,-11.719,0.000
1621213383.990,-23.926,-24.902,-41.016,-9.277,0.000
1621213383.994,-23.926,-31.250,-44.922,-15.137,0.000
1621213383.998,-6.836,-39.551,-37.109,-17.578,0.000
1621213384.002,-4.883,-35.156,-37.598,-27.344,0.000
1621213384.006,-25.391,-23.438,-40.527,-25.391,0.000
1621213384.010,-28.320,-22.461,-31.738,-14.160,0.000
1621213384.014,-24.902,-23.926,-36.133,-17.578,0.000
1621213384.018,-16.602,-28.809,-42.480,-32.227,0.000
1621213384.022,-20.508,-19.531,-34.180,-26.367,0.000
1621213384.026,-26.367,-18.555,-21.484,-10.742,0.000
1621213384.029,-21.973,-41.504,-21.973,-10.742,0.000
1621213384.033,-32.227,-38.574,-34.668,-19.043,0.000
1621213384.037,-23.438,-24.902,-39.062,-29.297,0.000
1621213384.041,-18.066,-38.086,-38.086,-31.250,0.000
1621213384.045,-19.531,-39.062,-38.086,-15.625,0.000
1621213384.049,-28.809,-39.062,-36.621,-17.090,0.000
1621213384.053,-22.949,-32.715,-39.551,-21.484,0.000
1621213384.057,-18.555,-19.531,-39.551,-5.859,0.000
1621213384.061,-18.555,-20.996,-40.527,0.488,0.000
1621213384.065,-12.207,-25.391,-43.457,-20.996,0.000
1621213384.068,-15.625,-36.133,-41.992,-31.738,0.000
1621213384.072,-14.648,-41.016,-39.062,-15.625,0.000
1621213384.076,-16.602,-36.621,-33.691,-12.207,0.000
1621213384.080,-17.090,-43.457,-38.086,-17.090,0.000
1621213384.084,-19.043,-50.293,-41.504,-15.137,0.000
1621213384.088,-19.043,-42.480,-42.969,-25.391,0.000
1621213384.092,-21.973,-39.551,-38.574,-35.156,0.000
1621213384.096,-25.879,-28.809,-29.297,-24.414,0.000
1621213384.100,-37.598,-26.855,-38.574,-34.668,0.000
1621213384.104,-26.367,-22.461,-49.805,-44.922,0.000
1621213384.108,-10.254,-22.949,-42.969,-38.086,0.000
1621213384.111,-7.812,-41.992,-35.645,-31.738,0.000
1621213384.115,-0.488,-34.180,-41.992,-31.738,0.000
1621213384.119,-19.043,-27.344,-41.992,-33.203,0.000
1621213384.123,-28.320,-42.480,-40.039,-36.133,0.000
1621213384.127,-23.926,-40.039,-43.945,-37.109,0.000
1621213384.131,-18.555,-22.949,-44.434,-26.367,0.000
1621213384.135,1.953,-23.926,-52.246,-29.785,0.000
1621213384.139,-13.672,-32.715,-49.316,-27.344,0.000
1621213384.143,-37.598,-45.410,-49.316,-23.926,0.000
1621213384.147,-34.668,-33.203,-46.875,-39.551,0.000
1621213384.151,-36.133,-19.043,-37.598,-42.480,0.000
1621213384.154,-19.531,-27.344,-44.922,-36.133,0.000
1621213384.158,-15.137,-33.203,-44.434,-25.879,0.000
1621213384.162,-18.066,-38.086,-35.645,-23.926,0.000
1621213384.166,-22.949,-33.203,-37.598,-32.227,0.000
1621213384.170,-18.066,-15.137,-46.875,-23.438,0.000
1621213384.174,-11.230,-24.902,-34.668,-21.484,0.000
1621213384.178,-24.414,-32.227,-32.715,-31.738,0.000
1621213384.182,-17.578,-17.090,-34.668,-28.320,0.000
1621213384.186,-7.812,-25.391,-29.785,-20.020,0.000
1621213384.190,7.324,-28.320,-42.969,-8.301,0.000
1621213384.193,22.949,-15.137,-45.898,19.531,0.000
1621213384.197,19.531,-31.250,-24.902,21.484,0.000
1621213384.201,-3.906,-44.434,-13.672,-18.555,0.000
1621213384.205,-17.090,-31.250,-27.344,-18.555,0.000
1621213384.209,-10.742,-30.273,-36.133,3.418,0.000
1621213384.213,-0.977,-29.785,-34.668,5.859,0.000
1621213384.217,-12.207,-28.809,-31.250,-18.555,0.000
1621213384.221,-11.230,-31.738,-30.273,-20.020,0.000
1621213384.225,0.000,-31.250,-28.809,6.348,0.000
1621213384.229,2.930,-32.715,-35.156,5.371,0.000
1621213384.233,4.883,-38.086,-39.551,5.371,0.000
1621213384.236,0.977,-26.367,-36.621,4.883,0.000
1621213384.240,0.977,-23.438,-33.203,-0.488,0.000
1621213384.244,-9.277,-26.367,-26.855,0.000,0.000
1621213384.248,-4.395,-27.344,-28.809,6.348,0.000
1621213384.252,-3.906,-28.809,-24.414,1.465,0.000
1621213384.256,-17.578,-27.832,-19.043,2.441,0.000
1621213384.260,-14.648,-32.715,-25.391,6.836,0.000
1621213384.264,-5.859,-36.133,-29.297,-5.859,0.000
1621213384.268,-10.254,-36.621,-28.320,-21.973,0.000
1621213384.272,-4.883,-32.715,-33.691,-15.625,0.000
1621213384.276,3.418,-29.297,-33.691,3.906,0.000
1621213384.279,15.625,-24.414,-28.809,21.973,0.000
1621213384.283,9.766,-24.902,-32.227,10.254,0.000
1621213384.287,-7.324,-20.996,-28.809,-5.371,0.000
1621213384.291,-6.836,-19.531,-22.461,0.488,0.000
1621213384.295,-6.348,-25.391,-28.320,-0.488,0.000
1621213384.299,-9.766,-28.809,-37.598,-0.977,0.000
1621213384.303,-16.113,-33.691,-32.227,-3.418,0.000
1621213384.307,-8.789,-35.156,-25.391,11.719,0.000
1621213384.311,2.441,-30.762,-27.832,20.020,0.000
1621213384.315,-15.137,-27.832,-24.414,4.883,0.000
1621213384.319,-16.602,-27.832,-27.344,0.977,0.000
1621213384.322,2.441,-20.996,-28.809,3.418,0.000
1621213384.326,-15.137,-23.438,-22.461,7.324,0.000
1621213384.330,-30.762,-30.762,-26.855,5.859,0.000
1621213384.334,-27.344,-28.809,-28.809,-2.930,0.000
1621213384.338,-30.762,-43.945,-23.926,-2.930,0.000
1621213384.342,-32.227,-45.410,-29.297,2.441,0.000
1621213384.346,-15.625,-25.879,-37.598,-0.977,0.000
1621213384.350,-15.137,-28.809,-32.715,-11.719,0.000
1621213384.354,-26.367,-38.086,-27.344,-16.113,0.000
1621213384.358,-23.438,-41.992,-27.832,-12.207,0.000
1621213384.361,-14.648,-38.086,-22.949,-12.695,0.000
1621213384.365,-17.578,-34.180,-27.344,-9.766,0.000
1621213384.369,-24.414,-29.785,-34.180,-8.301,0.000
1621213384.373,-16.602,-22.461,-32.227,-20.020,0.000
1621213384.377,-20.020,-28.320,-31.738,-22.461,0.000
1621213384.381,-33.203,-37.598,-27.832,-16.113,0.000
1621213384.385,-34.180,-34.668,-25.879,-7.812,0.000
1621213384.389,-38.086,-41.016,-28.320,-16.602,0.000
1621213384.393,-42.969,-39.551,-34.180,-21.973,0.000
1621213384.397,-21.484,-28.320,-29.785,-11.719,0.000
1621213384.401,-17.090,-33.203,-26.855,-17.090,0.000
1621213384.404,-27.832,-29.297,-27.832,-10.742,0.000
1621213384.408,-20.996,-26.367,-23.926,-4.395,0.000
1621213384.412,-6.836,-34.668,-25.391,7.324,0.000
1621213384.416,-4.883,-20.508,-27.344,5.859,0.000
1621213384.420,-20.508,-15.137,-27.344,-11.719,0.000
1621213384.424,-20.020,-29.785,-28.809,-13.672,0.000
1621213384.428,-20.996,-33.691,-34.180,0.000,0.000
1621213384.432,-27.832,-37.598,-30.273,0.000,0.000
1621213384.436,-14.160,-30.762,-30.762,-21.484,0.000
1621213384.440,-16.602,-20.020,-33.691,-22.461,0.000
1621213384.444,-17.090,-24.902,-29.297,-13.184,0.000
1621213384.447,-13.672,-21.484,-31.738,-17.578,0.000
1621213384.451,-19.043,-30.273,-38.574,-27.832,0.000
1621213384.455,-15.137,-41.016,-42.480,-28.809,0.000
1621213384.459,-10.254,-34.180,-46.875,-17.578,0.000
1621213384.463,-6.836,-24.414,-41.992,-13.672,0.000
1621213384.467,-7.812,-29.297,-41.992,-35.156,0.000
1621213384.471,-8.789,-25.391,-39.551,-36.133,0.000
1621213384.475,-23.926,-19.043,-29.785,-23.438,0.000
1621213384.479,-30.762,-27.832,-37.598,-27.832,0.000
1621213384.483,-30.762,-31.250,-36.621,-32.715,0.000
1621213384.486,-19.043,-23.438,-26.855,-25.879,0.000
1621213384.490,-12.695,-18.066,-25.391,-11.230,0.000
1621213384.494,-6.836,-20.996,-32.715,-3.418,0.000
1621213384.498,-3.418,-27.344,-33.203,4.883,0.000
1621213384.502,-9.766,-23.926,-31.250,6.348,0.000
1621213384.506,-0.977,-26.855,-33.691,-0.488,0.000
1621213384.510,3.906,-34.180,-32.715,0.488,0.000
1621213384.514,1.953,-26.855,-35.156,-3.418,0.000
1621213384.518,0.488,-19.531,-38.574,-3.906,0.000
1621213384.522,-0.977,-24.414,-39.551,-6.836,0.000
1621213384.526,8.301,-30.762,-48.828,-2.441,0.000
1621213384.529,8.789,-19.043,-50.293,3.418,0.000
1621213384.533,-5.859,-21.973,-43.945,-7.324,0.000
1621213384.537,-12.695,-31.250,-43.457,-19.531,0.000
1621213384.541,-14.160,-30.273,-38.086,-19.531,0.000
1621213384.545,-8.301,-29.785,-38.574,-11.230,0.000
1621213384.549,-10.254,-20.508,-46.875,-16.113,0.000
1621213384.553,-13.672,-21.973,-41.504,-25.391,0.000
1621213384.557,-18.555,-27.344,-38.574,-33.203,0.000
1621213384.561,-26.855,-31.250,-38.574,-31.250,0.000
1621213384.565,-29.297,-36.621,-34.180,-22.949,0.000
1621213384.569,-33.203,-35.156,-37.598,-32.227,0.000
1621213384.572,-24.902,-45.410,-39.062,-34.180,0.000
1621213384.576,-12.695,-48.828,-37.109,-22.949,0.000
1621213384.580,-15.137,-33.691,-35.645,-23.438,0.000
1621213384.584,-8.301,-31.250,-38.086,-30.762,0.000
1621213384.588,-5.371,-34.668,-36.621,-22.949,0.000
1621213384.592,-8.301,-34.668,-39.062,-14.648,0.000
1621213384.596,7.324,-24.414,-40.039,-8.301,0.000
1621213384.600,11.230,-26.855,-30.762,-8.301,0.000
1621213384.604,6.348,-30.273,-27.832,-7.324,0.000
1621213384.608,-6.836,-29.297,-36.621,3.906,0.000
1621213384.611,-1.465,-32.227,-41.504,21.484,0.000
1621213384.615,3.906,-38.086,-46.387,19.531,0.000
1621213384.619,-6.348,-21.973,-48.828,4.395,0.000
1621213384.623,-25.879,-10.254,-40.527,-7.812,0.000
1621213384.627,-21.484,-20.020,-39.551,-20.508,0.000
1621213384.631,-9.766,-26.367,-41.992,-23.438,0.000
1621213384.635,-20.508,-24.414,-38.086,-21.973,0.000
1621213384.639,-12.207,-22.461,-39.551,-22.461,0.000
1621213384.643,-6.836,-24.902,-38.574,-19.531,0.000
1621213384.647,-5.859,-22.949,-39.551,-12.695,0.000
1621213384.651,-20.996,-20.020,-41.016,-16.113,0.000
