timestamps,TP9,AF7,AF8,TP10,Right AUX
1621213922.441,-25.879,-33.691,-27.832,-36.133,0.000
1621213922.445,-59.570,-41.504,-25.879,-44.434,0.000
1621213922.448,-62.012,-42.480,-21.484,-73.730,0.000
1621213922.452,-36.621,-36.621,-24.414,-69.336,0.000
1621213922.456,-41.504,-41.016,-26.367,-53.223,0.000
1621213922.460,-47.363,-39.062,-22.949,-60.547,0.000
1621213922.464,-46.875,-30.762,-23.438,-66.406,0.000
1621213922.468,-41.016,-32.715,-24.414,-66.895,0.000
1621213922.472,-39.551,-39.551,-27.832,-44.434,0.000
1621213922.476,-42.480,-39.551,-24.902,-35.156,0.000
1621213922.480,-46.875,-39.062,-21.973,-41.504,0.000
1621213922.484,-30.762,-41.504,-32.227,-41.016,0.000
1621213922.488,-34.668,-32.227,-33.691,-32.227,0.000
1621213922.491,-42.969,-27.832,-27.344,-39.551,0.000
1621213922.495,-51.758,-36.621,-28.809,-43.457,0.000
1621213922.499,-53.711,-40.527,-31.250,-41.016,0.000
1621213922.503,-31.250,-33.691,-32.715,-21.973,0.000
1621213922.507,-29.785,-32.227,-31.738,11.230,0.000
1621213922.511,-34.668,-37.598,-39.062,-45.898,0.000
1621213922.515,-38.574,-33.691,-43.457,-70.312,0.000
1621213922.519,-18.555,-29.785,-40.039,-28.809,0.000
1621213922.523,-14.648,-32.227,-41.504,-25.879,0.000
1621213922.527,-36.133,-36.621,-36.133,-33.203,0.000
1621213922.530,-34.180,-38.574,-26.367,-35.156,0.000
1621213922.534,-16.113,-34.180,-29.297,-25.391,0.000
1621213922.538,0.977,-33.691,-27.832,-12.207,0.000
1621213922.542,-9.277,-30.762,-25.391,-28.809,0.000
1621213922.546,-20.508,-29.297,-29.785,-44.434,0.000
1621213922.550,-8.301,-26.367,-29.297,-23.926,0.000
1621213922.554,-18.555,-19.531,-27.832,-3.418,0.000
1621213922.558,-39.551,-24.902,-24.414,-9.277,0.000
1621213922.562,-37.109,-25.879,-24.902,-10.254,0.000
1621213922.566,-29.297,-25.391,-27.832,-2.930,0.000
1621213922.570,-12.695,-27.832,-26.855,-13.184,0.000
1621213922.573,-1.465,-24.902,-30.762,-30.273,0.000
1621213922.577,-10.254,-23.438,-26.855,-26.855,0.000
1621213922.581,-29.785,-23.926,-28.809,-20.996,0.000
1621213922.585,-35.156,-29.297,-38.574,-10.742,0.000
1621213922.589,-14.648,-35.645,-22.949,21.484,0.000
1621213922.593,-40.039,-27.344,-20.508,-12.207,0.000
1621213922.597,-70.312,-14.648,-37.598,-71.289,0.000
1621213922.601,-64.453,-18.066,-43.457,-56.152,0.000
1621213922.605,-62.012,-21.484,-50.781,-73.730,0.000
1621213922.609,-70.312,-18.066,-56.152,-107.910,0.000
1621213922.613,-99.121,-15.625,-60.547,-120.605,0.000
1621213922.616,-98.633,-14.648,-63.965,-119.629,0.000
1621213922.620,-108.398,-9.277,-67.383,-108.887,0.000
1621213922.624,-119.629,-10.254,-76.172,-126.465,0.000
1621213922.628,-112.793,-16.113,-74.219,-139.648,0.000
1621213922.632,-112.793,-13.672,-70.312,-129.883,0.000
1621213922.636,-117.676,-13.184,-80.566,-116.699,0.000
1621213922.640,-109.375,-9.277,-88.867,-126.465,0.000
1621213922.644,-101.074,-7.324,-91.309,-155.273,0.000
1621213922.648,-96.680,-11.230,-84.473,-137.695,0.000
1621213922.652,-98.145,-11.719,-89.355,-117.188,0.000
1621213922.655,-87.891,-6.348,-98.633,-106.445,0.000
1621213922.659,-91.797,-5.859,-95.215,-100.098,0.000
1621213922.663,-91.309,-14.160,-88.379,-97.168,0.000
1621213922.667,-81.543,-19.531,-75.195,-74.707,0.000
1621213922.671,-71.777,-17.578,-72.754,-62.988,0.000
1621213922.675,-59.570,-21.973,-83.008,-66.406,0.000
1621213922.679,-62.012,-30.762,-85.449,-78.613,0.000
1621213922.683,-51.270,-28.320,-75.195,-70.312,0.000
1621213922.687,-43.457,-23.926,-66.895,-75.195,0.000
1621213922.691,-37.109,-21.973,-66.406,-82.031,0.000
1621213922.695,-28.809,-15.137,-75.195,-48.828,0.000
1621213922.698,-37.109,-23.438,-73.242,-40.039,0.000
1621213922.702,-40.039,-28.809,-54.688,-42.480,0.000
1621213922.706,-28.320,-22.461,-47.852,-50.781,0.000
1621213922.710,-20.508,-23.438,-47.363,-64.453,0.000
1621213922.714,-15.625,-21.484,-49.805,-50.293,0.000
1621213922.718,-22.949,-22.461,-51.270,-44.434,0.000
1621213922.722,-16.602,-28.809,-45.410,-50.293,0.000
1621213922.726,-8.301,-30.273,-43.945,-33.203,0.000
1621213922.730,-10.742,-26.855,-43.457,-32.227,0.000
1621213922.734,-13.672,-31.738,-43.945,-58.594,0.000
1621213922.738,-19.531,-26.855,-46.387,-30.273,0.000
1621213922.741,-15.625,-18.555,-50.781,-20.020,0.000
1621213922.745,2.441,-20.508,-47.852,-39.551,0.000
1621213922.749,-7.812,-22.461,-34.668,-21.973,0.000
1621213922.753,-29.785,-26.367,-35.645,-12.695,0.000
1621213922.757,-25.879,-26.367,-38.086,-37.598,0.000
1621213922.761,-19.043,-20.508,-38.574,-49.316,0.000
1621213922.765,-18.066,-15.625,-44.434,-39.551,0.000
1621213922.769,-25.391,-18.555,-41.992,-47.363,0.000
1621213922.773,-31.250,-27.832,-39.062,-43.457,0.000
1621213922.777,-31.250,-28.809,-42.969,-52.734,0.000
1621213922.780,-29.297,-30.273,-45.898,-52.246,0.000
1621213922.784,-35.156,-33.691,-46.387,-28.809,0.000
1621213922.788,-51.758,-29.785,-43.457,-44.922,0.000
1621213922.792,-40.527,-33.691,-33.691,-31.738,0.000
1621213922.796,-36.133,-29.785,-35.156,-29.785,0.000
1621213922.800,-54.688,-18.555,-44.434,-59.570,0.000
1621213922.804,-66.406,-18.066,-45.898,-47.363,0.000
1621213922.808,-51.758,-24.414,-47.363,-45.410,0.000
1621213922.812,-43.457,-30.762,-54.688,-62.988,0.000
1621213922.816,-53.711,-27.344,-60.059,-69.824,0.000
1621213922.820,-38.086,-12.207,-56.641,-46.875,0.000
1621213922.823,-34.668,-14.648,-56.152,-56.152,0.000
1621213922.827,-43.457,-20.996,-61.035,-67.871,0.000
1621213922.831,-50.781,-24.414,-58.105,-73.730,0.000
1621213922.835,-48.828,-34.180,-53.223,-55.664,0.000
1621213922.839,-46.875,-29.297,-50.781,-52.734,0.000
1621213922.843,-55.176,-26.367,-48.340,-61.035,0.000
1621213922.847,-51.758,-32.715,-51.270,-46.387,0.000
1621213922.851,-35.156,-32.715,-49.805,-56.152,0.000
1621213922.855,-35.156,-31.738,-47.363,-51.758,0.000
1621213922.859,-24.902,-31.738,-46.387,-22.949,0.000
1621213922.863,-17.578,-25.391,-47.852,-27.344,0.000
1621213922.866,-34.180,-22.461,-46.875,-64.941,0.000
1621213922.870,-32.715,-31.250,-39.551,-47.363,0.000
1621213922.874,-25.391,-28.809,-39.062,-38.086,0.000
1621213922.878,-7.324,-22.461,-41.504,-37.109,0.000
1621213922.882,-22.461,-24.414,-39.551,-44.922,0.000
1621213922.886,-26.367,-15.625,-45.898,-38.086,0.000
1621213922.890,-8.789,-12.695,-51.758,-50.293,0.000
1621213922.894,-10.254,-20.508,-49.316,-50.293,0.000
1621213922.898,-15.137,-27.832,-46.387,-31.250,0.000
1621213922.902,-24.414,-25.879,-38.086,-31.738,0.000
1621213922.905,-21.484,-24.902,-38.574,-20.020,0.000
1621213922.909,-17.090,-29.785,-49.316,-21.484,0.000
1621213922.913,-19.531,-27.832,-43.457,-4.883,0.000
1621213922.917,-21.973,-28.320,-32.227,-7.324,0.000
1621213922.921,-20.020,-28.809,-39.062,-38.086,0.000
1621213922.925,-30.762,-27.344,-42.969,-47.363,0.000
1621213922.929,-20.508,-30.273,-44.922,-22.949,0.000
1621213922.933,-23.438,-31.738,-43.945,-16.113,0.000
1621213922.937,-38.574,-29.785,-43.457,-27.344,0.000
1621213922.941,-36.621,-25.391,-42.969,-21.484,0.000
1621213922.945,-38.574,-24.902,-41.504,-41.016,0.000
1621213922.948,-41.016,-26.855,-41.016,-50.781,0.000
1621213922.952,-42.969,-29.785,-40.527,-26.367,0.000
1621213922.956,-36.133,-32.715,-31.250,-5.859,0.000
1621213922.960,-38.574,-32.715,-22.949,-31.738,0.000
1621213922.964,-36.621,-23.926,-24.902,-47.852,0.000
1621213922.968,-31.738,-14.648,-34.180,-41.016,0.000
1621213922.972,-39.062,-24.414,-33.203,-45.898,0.000
1621213922.976,-35.645,-37.598,-30.273,-36.133,0.000
1621213922.980,-31.250,-34.668,-33.691,-24.902,0.000
1621213922.984,-27.832,-29.785,-34.668,-20.020,0.000
1621213922.987,-24.414,-36.133,-34.668,-3.906,0.000
1621213922.991,-17.578,-37.109,-37.109,-12.207,0.000
1621213922.995,-22.461,-34.180,-39.062,-48.340,0.000
1621213922.999,-12.207,-30.273,-44.434,-36.621,0.000
1621213923.003,-11.230,-24.902,-42.969,3.906,0.000
1621213923.007,-43.457,-28.809,-24.414,-19.043,0.000
1621213923.011,-59.082,-31.250,-20.508,-57.617,0.000
1621213923.015,-48.828,-32.715,-17.578,-32.227,0.000
1621213923.019,-46.875,-33.691,-10.742,-32.227,0.000
1621213923.023,-60.547,-36.621,-23.438,-52.246,0.000
1621213923.027,-43.457,-41.992,-19.531,-43.457,0.000
1621213923.030,-44.434,-42.969,-4.883,-43.945,0.000
1621213923.034,-44.922,-45.410,-6.836,-22.461,0.000
1621213923.038,-29.785,-53.223,-6.348,-20.508,0.000
1621213923.042,-32.227,-43.945,-8.789,-39.062,0.000
1621213923.046,-28.320,-33.203,-10.742,-40.039,0.000
1621213923.050,-28.809,-37.109,-11.230,-29.785,0.000
1621213923.054,-22.461,-39.551,-14.648,-15.137,0.000
1621213923.058,-14.160,-41.992,-10.742,-18.066,0.000
1621213923.062,-33.203,-36.133,-5.371,-31.738,0.000
1621213923.066,-29.785,-30.762,-10.254,-37.109,0.000
1621213923.070,-8.789,-34.668,-17.090,-10.742,0.000
1621213923.073,-19.043,-33.203,-16.113,-14.648,0.000
1621213923.077,-47.363,-30.762,-13.672,-52.734,0.000
1621213923.081,-42.480,-33.691,-17.578,-30.762,0.000
1621213923.085,-15.137,-42.480,-16.113,-10.254,0.000
1621213923.089,-13.672,-37.598,-8.301,-16.602,0.000
1621213923.093,-24.414,-25.879,-14.648,-29.297,0.000
1621213923.097,-45.410,-29.297,-22.461,-25.391,0.000
1621213923.101,-45.898,-32.227,-25.879,-13.672,0.000
1621213923.105,-32.227,-38.574,-20.020,-18.555,0.000
1621213923.109,-28.809,-40.039,-17.090,-31.738,0.000
1621213923.112,-20.020,-33.691,-25.391,-18.555,0.000
1621213923.116,-19.043,-35.156,-21.484,-17.090,0.000
1621213923.120,-15.137,-33.691,-18.555,-27.344,0.000
1621213923.124,-20.996,-35.645,-19.043,-22.949,0.000
1621213923.128,-15.625,-39.062,-16.602,-14.648,0.000
1621213923.132,-19.531,-33.691,-18.555,-19.043,0.000
1621213923.136,-38.574,-29.785,-23.926,-31.738,0.000
1621213923.140,-34.668,-32.715,-20.508,-21.484,0.000
1621213923.144,-30.762,-45.410,-18.555,-22.949,0.000
1621213923.148,-36.133,-42.969,-18.555,-33.203,0.000
1621213923.152,-38.574,-31.738,-27.832,-36.621,0.000
1621213923.155,-48.340,-33.691,-31.250,-34.180,0.000
1621213923.159,-51.758,-40.527,-20.996,-18.066,0.000
1621213923.163,-38.574,-41.504,-23.926,-38.086,0.000
1621213923.167,-48.340,-38.086,-26.367,-54.199,0.000
1621213923.171,-31.250,-23.926,-31.250,-27.832,0.000
1621213923.175,-25.879,-22.949,-35.645,-40.039,0.000
1621213923.179,-57.129,-37.109,-21.973,-51.270,0.000
1621213923.183,-61.035,-36.621,-17.578,-40.039,0.000
1621213923.187,-35.156,-29.297,-27.344,-45.410,0.000
1621213923.191,-23.438,-31.738,-26.367,-59.570,0.000
1621213923.195,-33.691,-31.250,-23.926,-47.852,0.000
1621213923.198,-40.527,-30.762,-29.297,-44.434,0.000
1621213923.202,-50.781,-33.203,-26.367,-35.156,0.000
1621213923.206,-42.480,-22.949,-19.531,-38.086,0.000
1621213923.210,-41.016,-23.438,-18.066,-63.965,0.000
1621213923.214,-33.203,-35.156,-18.555,-52.734,0.000
1621213923.218,-54.199,-28.809,-23.438,-35.156,0.000
1621213923.222,-59.082,-33.691,-23.438,-43.457,0.000
1621213923.226,-17.090,-42.480,-16.113,-35.645,0.000
1621213923.230,-42.480,-39.062,-13.672,-46.387,0.000
1621213923.234,-76.660,-29.785,-25.391,-57.129,0.000
1621213923.237,-89.844,-40.039,-23.926,-37.109,0.000
1621213923.241,-26.367,-38.574,-17.578,-22.949,0.000
1621213923.245,-26.855,-33.691,-17.578,-46.875,0.000
1621213923.249,-37.598,-46.875,-3.418,-51.270,0.000
1621213923.253,-15.625,-39.551,-0.488,-20.996,0.000
1621213923.257,-7.324,-43.457,-6.348,-26.367,0.000
1621213923.261,-19.531,-44.922,-4.883,-43.945,0.000
1621213923.265,-47.852,-35.645,-5.859,-19.531,0.000
1621213923.269,-48.340,-31.738,-9.277,-23.926,0.000
1621213923.273,-31.738,-32.227,-12.695,-27.344,0.000
1621213923.277,-30.273,-28.320,-10.742,-12.207,0.000
1621213923.280,-24.414,-36.621,-12.207,-4.883,0.000
1621213923.284,-12.695,-34.180,-17.090,-5.859,0.000
1621213923.288,-9.766,-27.832,-11.230,-19.043,0.000
1621213923.292,-30.762,-38.574,-7.324,-31.738,0.000
1621213923.296,-63.477,-37.598,-7.812,-25.879,0.000
1621213923.300,-57.129,-33.691,-9.277,-28.320,0.000
1621213923.304,-15.137,-39.551,-2.930,-9.277,0.000
1621213923.308,-17.090,-38.574,-10.742,-5.371,0.000
1621213923.312,-41.504,-34.668,-16.602,-40.527,0.000
1621213923.316,-30.273,-32.715,-10.742,-37.598,0.000
1621213923.319,-8.789,-29.297,-16.113,-23.438,0.000
1621213923.323,-21.973,-22.949,-19.043,-29.785,0.000
1621213923.327,-30.762,-28.320,-22.461,-35.645,0.000
1621213923.331,-19.043,-31.250,-28.809,-36.621,0.000
1621213923.335,-16.602,-20.508,-21.973,-17.090,0.000
1621213923.339,-18.066,-20.996,-20.508,-20.996,0.000
1621213923.343,-24.902,-31.250,-20.996,-33.691,0.000
1621213923.347,-17.578,-22.949,-19.531,-27.832,0.000
1621213923.351,-13.184,-25.391,-15.625,-16.113,0.000
1621213923.355,-14.160,-30.762,-19.531,-19.043,0.000
1621213923.359,-29.785,-27.832,-25.879,-48.340,0.000
1621213923.362,-31.738,-31.738,-35.645,-48.340,0.000
1621213923.366,-35.645,-37.109,-38.086,-41.504,0.000
1621213923.370,-54.688,-39.062,-27.344,-52.246,0.000
1621213923.374,-40.039,-31.738,-31.250,-53.223,0.000
1621213923.378,-38.574,-27.832,-35.645,-49.316,0.000
1621213923.382,-39.551,-31.738,-32.227,-61.523,0.000
1621213923.386,-33.203,-36.133,-25.879,-52.246,0.000
1621213923.390,-22.461,-36.621,-30.762,-30.762,0.000
1621213923.394,-18.555,-34.668,-34.180,-29.297,0.000
1621213923.398,-21.973,-27.344,-29.785,-26.367,0.000
1621213923.402,-25.391,-30.762,-33.203,-35.645,0.000
1621213923.405,-26.855,-38.086,-33.203,-38.574,0.000
1621213923.409,-16.113,-27.832,-32.227,-36.621,0.000
1621213923.413,-15.625,-23.438,-30.273,-21.484,0.000
1621213923.417,-26.367,-25.879,-22.461,-11.719,0.000
1621213923.421,-28.809,-23.926,-26.855,-34.180,0.000
1621213923.425,3.418,-33.691,-30.273,-19.043,0.000
1621213923.429,10.742,-39.062,-16.113,0.000,0.000
1621213923.433,-28.320,-25.879,-20.508,-36.133,0.000
1621213923.437,-33.203,-24.902,-34.668,-51.270,0.000
1621213923.441,-20.020,-31.738,-34.180,-36.621,0.000
1621213923.444,-27.832,-31.738,-35.645,-35.645,0.000
1621213923.448,-26.367,-22.461,-48.828,-54.688,0.000
1621213923.452,-18.066,-14.648,-49.805,-45.410,0.000
1621213923.456,-42.969,-26.367,-49.316,-36.133,0.000
1621213923.460,-48.340,-30.762,-50.781,-53.711,0.000
1621213923.464,-50.293,-23.926,-54.688,-60.059,0.000
1621213923.468,-44.434,-31.250,-62.012,-50.293,0.000
1621213923.472,-37.109,-31.250,-60.059,-41.992,0.000
1621213923.476,-31.250,-30.273,-59.570,-47.852,0.000
1621213923.480,-27.344,-29.785,-55.176,-46.875,0.000
1621213923.484,-37.598,-29.785,-51.270,-43.945,0.000
1621213923.487,-36.133,-39.062,-54.688,-27.344,0.000
1621213923.491,-30.762,-34.180,-58.105,-34.668,0.000
1621213923.495,-34.668,-28.320,-49.316,-44.434,0.000
1621213923.499,-38.086,-22.461,-46.387,-49.805,0.000
1621213923.503,-18.066,-28.320,-52.246,-35.156,0.000
1621213923.507,-19.531,-40.039,-49.316,-26.367,0.000
1621213923.511,-17.090,-33.203,-49.316,-28.320,0.000
1621213923.515,0.977,-29.297,-46.387,-35.156,0.000
1621213923.519,-10.254,-27.832,-44.922,-30.762,0.000
1621213923.523,-20.508,-27.832,-42.969,-11.719,0.000
1621213923.527,-23.926,-36.621,-36.133,-25.391,0.000
1621213923.530,-12.207,-31.738,-45.410,-48.828,0.000
1621213923.534,-19.043,-32.227,-44.922,-32.227,0.000
1621213923.538,-33.691,-35.645,-43.457,-14.160,0.000
1621213923.542,-13.184,-29.297,-39.062,-35.645,0.000
1621213923.546,0.000,-32.227,-30.762,-36.621,0.000
1621213923.550,-14.160,-40.527,-27.344,-10.254,0.000
1621213923.554,-15.625,-38.574,-26.367,-10.742,0.000
1621213923.558,-18.066,-28.320,-36.133,-30.762,0.000
1621213923.562,-25.391,-25.879,-37.109,-28.809,0.000
1621213923.566,-10.254,-23.926,-35.645,-28.809,0.000
1621213923.569,-5.371,-26.855,-32.227,-16.113,0.000
1621213923.573,-18.555,-31.738,-27.832,-2.930,0.000
1621213923.577,-20.508,-30.273,-31.250,-33.203,0.000
1621213923.581,-23.438,-25.879,-33.203,-30.273,0.000
1621213923.585,-18.066,-23.926,-35.645,-24.902,0.000
1621213923.589,-10.254,-28.320,-29.297,-21.973,0.000
1621213923.593,-32.227,-29.297,-29.297,-27.832,0.000
1621213923.597,-32.715,-30.273,-35.156,-33.203,0.000
1621213923.601,-10.254,-31.250,-32.715,-11.719,0.000
1621213923.605,-5.371,-39.062,-27.832,-16.602,0.000
1621213923.609,-15.137,-33.691,-31.738,-20.020,0.000
1621213923.612,-30.273,-20.508,-43.945,-38.574,0.000
1621213923.616,-31.738,-27.344,-43.457,-52.734,0.000
1621213923.620,-5.859,-25.879,-41.504,-44.434,0.000
1621213923.624,-8.789,-16.113,-46.875,-47.852,0.000
1621213923.628,-24.414,-23.438,-48.340,-33.203,0.000
1621213923.632,-22.461,-23.438,-45.898,-34.668,0.000
1621213923.636,-25.879,-14.160,-56.641,-55.664,0.000
1621213923.640,-7.812,-14.648,-66.406,-50.781,0.000
1621213923.644,-23.926,-23.926,-48.828,-47.852,0.000
1621213923.648,-33.203,-24.414,-41.992,-31.250,0.000
1621213923.652,-20.996,-17.578,-50.781,-30.762,0.000
1621213923.655,-20.508,-21.484,-50.293,-55.664,0.000
1621213923.659,-20.996,-25.879,-46.875,-39.062,0.000
1621213923.663,-26.367,-22.949,-42.480,-38.086,0.000
1621213923.667,-27.344,-24.414,-43.457,-44.434,0.000
1621213923.671,-9.277,-26.367,-44.922,-21.484,0.000
1621213923.675,-6.348,-27.344,-49.805,-19.043,0.000
1621213923.679,-23.438,-30.273,-47.363,-50.781,0.000
1621213923.683,-25.391,-32.227,-36.621,-27.344,0.000
1621213923.687,-6.836,-22.949,-41.504,-33.203,0.000
1621213923.691,-22.949,-18.555,-45.410,-40.527,0.000
1621213923.694,-39.551,-31.250,-46.387,-25.391,0.000
1621213923.698,-39.062,-33.691,-44.922,-39.062,0.000
1621213923.702,-26.367,-24.414,-43.457,-22.949,0.000
1621213923.706,-19.043,-24.414,-44.922,-23.438,0.000
1621213923.710,-17.578,-28.320,-42.969,-27.832,0.000
1621213923.714,-17.090,-25.391,-44.922,-23.926,0.000
1621213923.718,-27.344,-32.227,-47.852,-37.598,0.000
1621213923.722,-12.207,-37.109,-49.805,-39.551,0.000
1621213923.726,-16.113,-39.551,-45.410,-28.809,0.000
1621213923.730,-10.742,-38.574,-34.180,-29.785,0.000
1621213923.734,-3.418,-32.715,-31.738,-4.395,0.000
1621213923.737,-26.367,-24.414,-33.691,11.719,0.000
1621213923.741,-21.484,-25.391,-43.457,-17.090,0.000
1621213923.745,-15.137,-24.902,-43.457,-28.320,0.000
1621213923.749,-15.625,-21.484,-28.320,-16.602,0.000
1621213923.753,-0.488,-19.531,-33.203,-19.531,0.000
1621213923.757,-4.883,-19.043,-41.504,-27.344,0.000
1621213923.761,-27.344,-25.391,-37.598,-43.945,0.000
1621213923.765,-35.156,-32.715,-41.504,-56.641,0.000
1621213923.769,-24.414,-33.203,-37.109,-41.992,0.000
1621213923.773,-16.602,-30.762,-33.691,-37.598,0.000
1621213923.776,-16.113,-35.156,-43.945,-44.922,0.000
1621213923.780,-34.180,-35.156,-49.316,-41.992,0.000
1621213923.784,-36.133,-36.621,-43.457,-45.898,0.000
1621213923.788,-34.668,-41.992,-35.156,-36.133,0.000
1621213923.792,-39.551,-38.086,-35.156,-8.789,0.000
1621213923.796,-22.461,-31.738,-41.504,-24.902,0.000
1621213923.800,-19.531,-35.645,-46.875,-64.453,0.000
1621213923.804,-36.133,-35.156,-41.016,-44.434,0.000
1621213923.808,-29.785,-33.203,-28.809,-23.438,0.000
1621213923.812,-1.953,-32.715,-30.762,-40.527,0.000
1621213923.816,-16.113,-27.344,-35.156,-44.922,0.000
1621213923.819,-11.230,-24.902,-32.227,-22.949,0.000
1621213923.823,2.930,-21.484,-38.086,-26.855,0.000
1621213923.827,-27.344,-19.043,-39.551,-43.945,0.000
1621213923.831,-37.598,-30.762,-34.668,-52.734,0.000
1621213923.835,-41.016,-38.086,-31.250,-31.250,0.000
1621213923.839,-33.691,-34.668,-34.668,-21.973,0.000
1621213923.843,-18.066,-36.621,-39.551,-58.594,0.000
1621213923.847,-38.086,-42.969,-31.250,-73.242,0.000
1621213923.851,-61.035,-38.574,-30.762,-42.969,0.000
1621213923.855,-51.758,-36.621,-35.645,-27.344,0.000
1621213923.859,-27.344,-45.898,-41.992,-30.273,0.000
1621213923.862,2.930,-37.109,-43.945,-16.113,0.000
1621213923.866,-32.227,-31.738,-40.527,-19.043,0.000
1621213923.870,-60.059,-40.039,-31.250,-45.898,0.000
1621213923.874,-50.781,-44.434,-26.367,-53.711,0.000
1621213923.878,-47.852,-49.805,-33.691,-8.789,0.000
1621213923.882,-29.297,-49.805,-23.926,7.324,0.000
1621213923.886,-16.113,-57.617,-20.020,-7.812,0.000
1621213923.890,15.137,-62.012,-23.926,11.719,0.000
1621213923.894,25.391,-50.781,-12.695,11.719,0.000
1621213923.898,8.789,-47.363,-13.672,19.043,0.000
1621213923.901,20.508,-50.293,-13.672,39.062,0.000
1621213923.905,43.457,-42.480,-12.207,20.020,0.000
1621213923.909,36.133,-39.551,-20.020,6.836,0.000
1621213923.913,26.855,-47.852,-17.090,18.066,0.000
1621213923.917,26.855,-49.805,-19.043,13.672,0.000
1621213923.921,39.551,-45.898,-18.555,22.949,0.000
1621213923.925,53.711,-41.016,-19.043,28.320,0.000
1621213923.929,29.785,-37.598,-19.531,12.207,0.000
1621213923.933,26.855,-41.504,-13.184,35.645,0.000
1621213923.937,44.434,-40.039,-8.789,50.293,0.000
1621213923.941,43.945,-30.762,-11.719,32.715,0.000
1621213923.944,23.438,-30.273,-17.578,13.672,0.000
1621213923.948,10.742,-35.156,-17.090,7.812,0.000
1621213923.952,13.184,-33.203,-16.113,20.996,0.000
1621213923.956,12.695,-35.156,-19.043,15.137,0.000
1621213923.960,8.301,-41.016,-20.020,16.113,0.000
1621213923.964,-1.465,-33.691,-13.672,36.133,0.000
1621213923.968,8.301,-29.297,-14.160,29.297,0.000
1621213923.972,18.066,-35.156,-22.461,-6.836,0.000
1621213923.976,4.883,-42.969,-20.508,-12.207,0.000
1621213923.980,-4.883,-42.480,-13.184,-0.488,0.000
1621213923.984,14.160,-41.504,-15.137,5.859,0.000
1621213923.987,15.137,-41.992,-21.484,11.230,0.000
1621213923.991,6.348,-40.039,-20.020,-4.883,0.000
1621213923.995,20.020,-31.738,-22.461,-25.391,0.000
1621213923.999,8.301,-25.879,-23.438,-6.348,0.000
1621213924.003,-2.441,-28.320,-21.973,-9.277,0.000
1621213924.007,13.184,-25.391,-20.020,-10.254,0.000
1621213924.011,13.184,-26.855,-17.090,-5.371,0.000
1621213924.015,-5.371,-31.250,-20.020,-3.906,0.000
1621213924.019,-13.672,-28.809,-29.785,-13.184,0.000
1621213924.023,-27.344,-29.297,-39.062,-29.785,0.000
1621213924.026,-14.648,-32.227,-37.109,-18.066,0.000
1621213924.030,-10.254,-30.762,-32.715,-21.973,0.000
1621213924.034,-28.320,-28.809,-33.691,-20.020,0.000
1621213924.038,-13.672,-30.273,-31.738,-13.672,0.000
1621213924.042,-6.348,-31.738,-26.855,-21.973,0.000
1621213924.046,-27.344,-37.109,-30.273,-21.484,0.000
1621213924.050,-26.855,-33.203,-35.645,-2.930,0.000
1621213924.054,-22.461,-29.297,-36.133,-15.625,0.000
1621213924.058,-28.320,-35.156,-32.227,-12.207,0.000
1621213924.062,-35.645,-38.086,-27.344,-24.902,0.000
1621213924.066,-41.992,-29.297,-25.391,-21.973,0.000
1621213924.069,-41.504,-30.762,-27.344,-9.277,0.000
1621213924.073,-38.574,-36.133,-26.855,-32.227,0.000
1621213924.077,-28.809,-30.273,-27.832,-48.340,0.000
1621213924.081,-36.133,-33.691,-31.250,-41.016,0.000
1621213924.085,-34.180,-41.992,-30.273,-17.578,0.000
1621213924.089,-34.668,-46.875,-29.297,-32.227,0.000
1621213924.093,-23.438,-40.039,-34.668,-21.484,0.000
1621213924.097,-16.602,-37.109,-34.668,0.977,0.000
1621213924.101,-30.273,-41.016,-24.902,-8.301,0.000
1621213924.105,-39.062,-36.133,-25.391,-19.043,0.000
1621213924.109,-31.250,-29.785,-26.367,-36.133,0.000
1621213924.112,-24.902,-29.785,-27.832,-39.551,0.000
1621213924.116,-34.180,-36.133,-27.832,-15.625,0.000
1621213924.120,-24.414,-34.180,-29.785,-21.484,0.000
1621213924.124,-33.691,-29.785,-36.621,-23.438,0.000
1621213924.128,-61.523,-37.109,-33.691,-33.691,0.000
1621213924.132,-52.246,-35.156,-27.832,-38.574,0.000
1621213924.136,-49.316,-33.691,-31.250,-31.738,0.000
1621213924.140,-53.711,-34.180,-34.668,-53.711,0.000
1621213924.144,-39.551,-27.344,-36.133,-41.016,0.000
1621213924.148,-24.902,-28.809,-42.480,-31.250,0.000
1621213924.151,-26.367,-27.832,-41.504,-43.945,0.000
1621213924.155,-41.992,-35.645,-39.062,-36.621,0.000
1621213924.159,-57.617,-47.363,-35.645,-49.316,0.000
1621213924.163,-30.273,-39.551,-35.645,-41.992,0.000
1621213924.167,-11.230,-28.320,-42.969,-43.945,0.000
1621213924.171,-49.805,-33.691,-41.992,-33.691,0.000
1621213924.175,-41.016,-40.039,-42.969,-25.879,0.000
1621213924.179,-40.039,-32.715,-44.434,-43.457,0.000
1621213924.183,-41.504,-36.133,-43.945,-30.762,0.000
1621213924.187,-32.227,-42.480,-42.480,-39.062,0.000
1621213924.191,-37.109,-36.621,-39.062,-55.176,0.000
1621213924.194,-38.086,-36.133,-41.504,-48.828,0.000
1621213924.198,-25.391,-34.668,-37.598,-30.273,0.000
1621213924.202,-25.391,-36.621,-34.668,-32.715,0.000
1621213924.206,-33.203,-41.504,-32.715,-38.574,0.000
1621213924.210,-27.832,-42.480,-31.738,-18.555,0.000
1621213924.214,0.488,-33.203,-34.668,-22.461,0.000
1621213924.218,-21.973,-23.926,-27.344,-42.480,0.000
1621213924.222,-54.199,-32.715,-25.879,-44.922,0.000
1621213924.226,-38.086,-45.410,-24.414,-47.852,0.000
1621213924.230,-43.945,-44.434,-20.996,-47.363,0.000
1621213924.233,-42.480,-42.480,-17.090,-33.203,0.000
1621213924.237,-49.805,-48.828,-6.836,-36.621,0.000
1621213924.241,-48.340,-48.828,-7.812,-32.227,0.000
1621213924.245,-11.719,-47.852,-12.207,-7.812,0.000
1621213924.249,-8.301,-41.992,-12.207,-28.809,0.000
1621213924.253,-17.578,-41.504,-7.812,-34.668,0.000
1621213924.257,-23.926,-50.781,-11.230,-24.414,0.000
1621213924.261,-26.367,-42.969,-19.043,-30.273,0.000
1621213924.265,-14.160,-37.109,-16.113,-15.137,0.000
1621213924.269,-16.602,-38.086,-20.020,-13.184,0.000
1621213924.273,-31.250,-35.645,-25.391,-18.555,0.000
1621213924.276,-21.973,-34.180,-27.344,-19.531,0.000
1621213924.280,-17.578,-35.645,-24.902,-30.762,0.000
1621213924.284,-34.668,-38.574,-26.855,-34.180,0.000
1621213924.288,-18.555,-37.598,-32.715,-18.555,0.000
1621213924.292,-24.414,-37.598,-27.832,-20.996,0.000
1621213924.296,-41.504,-34.668,-23.438,-21.973,0.000
1621213924.300,-26.367,-35.645,-26.367,-20.996,0.000
1621213924.304,-15.137,-43.457,-29.785,-33.691,0.000
1621213924.308,-19.043,-45.898,-28.809,-20.996,0.000
1621213924.312,-13.672,-37.109,-30.762,-26.855,0.000
1621213924.316,-17.090,-40.527,-31.250,-41.504,0.000
1621213924.319,-29.297,-41.504,-32.715,-39.062,0.000
1621213924.323,-16.602,-37.598,-33.691,-10.742,0.000
1621213924.327,-17.090,-40.039,-26.855,-4.883,0.000
1621213924.331,-17.578,-41.016,-24.902,-7.812,0.000
1621213924.335,-27.344,-40.527,-32.715,-24.414,0.000
1621213924.339,-19.531,-36.621,-32.715,-22.461,0.000
1621213924.343,-13.184,-30.273,-28.320,-15.137,0.000
1621213924.347,-27.832,-29.297,-28.809,-31.250,0.000
1621213924.351,-26.855,-30.762,-28.320,-22.949,0.000
1621213924.355,-19.043,-34.668,-30.762,-10.254,0.000
1621213924.358,-27.344,-30.762,-28.809,-28.320,0.000
1621213924.362,-41.504,-34.180,-22.949,-59.570,0.000
1621213924.366,-41.992,-38.086,-21.973,-30.762,0.000
1621213924.370,-53.711,-33.691,-26.367,-16.113,0.000
1621213924.374,-46.387,-31.250,-29.297,-34.180,0.000
1621213924.378,-41.016,-28.809,-30.273,-46.387,0.000
1621213924.382,-34.180,-31.250,-26.855,-52.734,0.000
1621213924.386,-28.320,-31.738,-28.809,-43.945,0.000
1621213924.390,-31.738,-28.320,-35.645,-34.668,0.000
1621213924.394,-50.293,-28.809,-32.227,-42.480,0.000
1621213924.398,-43.945,-29.297,-27.344,-30.762,0.000
1621213924.401,-35.156,-26.367,-31.738,-48.340,0.000
1621213924.405,-35.156,-28.320,-38.086,-51.270,0.000
1621213924.409,-31.738,-33.203,-40.527,-27.344,0.000
1621213924.413,-38.574,-31.250,-29.785,-49.316,0.000
1621213924.417,-36.133,-25.391,-22.949,-36.133,0.000
1621213924.421,-31.738,-23.438,-23.926,-32.715,0.000
1621213924.425,-17.578,-25.391,-25.879,-33.203,0.000
1621213924.429,-15.137,-23.438,-30.762,-26.855,0.000
1621213924.433,-16.602,-20.020,-29.785,-28.320,0.000
1621213924.437,-22.949,-20.996,-30.762,-25.391,0.000
1621213924.441,-22.461,-26.367,-38.086,-28.809,0.000
1621213924.444,-20.508,-30.762,-36.133,-31.738,0.000
1621213924.448,-30.273,-27.344,-41.504,-40.527,0.000
1621213924.452,-29.297,-21.973,-42.969,-48.828,0.000
1621213924.456,-37.109,-20.020,-35.645,-37.109,0.000
1621213924.460,-35.156,-23.438,-39.062,-41.504,0.000
1621213924.464,-42.480,-25.879,-32.227,-43.457,0.000
1621213924.468,-52.246,-30.273,-33.691,-34.180,0.000
1621213924.472,-35.645,-32.227,-41.016,-35.156,0.000
1621213924.476,-30.762,-38.574,-37.109,-27.344,0.000
1621213924.480,-29.785,-38.574,-39.062,-23.926,0.000
1621213924.483,-19.043,-30.273,-41.016,-36.621,0.000
1621213924.487,-27.344,-28.809,-35.156,-30.762,0.000
1621213924.491,-20.996,-25.391,-34.180,-30.762,0.000
1621213924.495,-17.090,-28.809,-31.250,-30.273,0.000
1621213924.499,-33.691,-29.297,-33.691,-30.273,0.000
1621213924.503,-40.039,-25.391,-39.062,-47.363,0.000
1621213924.507,-41.992,-34.180,-37.598,-47.852,0.000
1621213924.511,-33.691,-39.062,-40.039,-48.340,0.000
1621213924.515,-27.832,-29.785,-45.410,-58.105,0.000
1621213924.519,-36.133,-29.785,-41.992,-63.965,0.000
1621213924.523,-20.508,-33.203,-43.457,-54.688,0.000
1621213924.526,-24.902,-28.809,-44.922,-38.086,0.000
1621213924.530,-39.551,-24.414,-41.016,-36.133,0.000
1621213924.534,-38.574,-24.414,-39.551,-54.199,0.000
1621213924.538,-36.133,-26.855,-42.969,-46.387,0.000
1621213924.542,-43.457,-27.832,-44.922,-25.879,0.000
1621213924.546,-41.992,-33.203,-38.574,-55.176,0.000
1621213924.550,-38.086,-38.086,-36.621,-43.457,0.000
1621213924.554,-38.574,-33.203,-28.320,-32.715,0.000
1621213924.558,-26.855,-25.391,-32.227,-48.340,0.000
1621213924.562,-47.852,-30.273,-37.598,-46.875,0.000
1621213924.565,-53.223,-29.297,-34.668,-51.758,0.000
1621213924.569,-44.922,-26.367,-33.691,-34.180,0.000
1621213924.573,-54.688,-36.621,-34.180,-23.438,0.000
1621213924.577,-57.617,-36.133,-36.621,-47.363,0.000
1621213924.581,-46.875,-35.645,-39.551,-51.758,0.000
1621213924.585,-35.156,-38.574,-34.180,-28.320,0.000
1621213924.589,-33.203,-34.180,-34.668,-32.715,0.000
1621213924.593,-30.273,-26.367,-42.969,-51.270,0.000
1621213924.597,-16.113,-24.414,-42.480,-42.480,0.000
1621213924.601,-31.250,-28.320,-39.551,-23.438,0.000
1621213924.605,-48.828,-31.250,-39.062,-27.344,0.000
1621213924.608,-47.852,-36.133,-34.668,-41.016,0.000
1621213924.612,-57.617,-39.062,-39.551,-57.617,0.000
1621213924.616,-55.176,-45.410,-47.363,-69.336,0.000
1621213924.620,-47.363,-39.062,-45.410,-53.711,0.000
1621213924.624,-46.875,-28.809,-43.457,-40.527,0.000
1621213924.628,-35.156,-31.250,-42.480,-32.227,0.000
1621213924.632,-40.527,-40.527,-48.340,-16.602,0.000
1621213924.636,-52.734,-42.480,-45.898,-22.461,0.000
1621213924.640,-33.203,-30.762,-43.945,-21.484,0.000
1621213924.644,-35.156,-28.320,-48.828,-8.789,0.000
1621213924.648,-44.434,-31.738,-50.781,-42.969,0.000
1621213924.651,-37.598,-34.668,-49.805,-52.246,0.000
1621213924.655,-18.555,-34.668,-42.480,-34.668,0.000
1621213924.659,-25.391,-31.738,-36.133,-47.363,0.000
1621213924.663,-42.480,-29.297,-37.109,-64.941,0.000
1621213924.667,-31.738,-29.785,-46.387,-60.547,0.000
1621213924.671,-30.273,-40.039,-48.340,-41.504,0.000
1621213924.675,-41.016,-42.969,-48.828,-52.246,0.000
1621213924.679,-36.621,-29.785,-47.852,-43.457,0.000
1621213924.683,-28.809,-17.578,-46.387,-30.273,0.000
1621213924.687,-13.672,-21.484,-51.270,-43.945,0.000
1621213924.691,-21.973,-25.879,-49.805,-30.762,0.000
1621213924.694,-21.484,-20.020,-43.945,-34.180,0.000
1621213924.698,-19.531,-21.484,-45.410,-41.992,0.000
1621213924.702,-45.410,-31.250,-43.945,-36.621,0.000
1621213924.706,-32.715,-28.320,-41.016,-27.344,0.000
1621213924.710,-26.367,-21.973,-43.945,-28.320,0.000
1621213924.714,-15.137,-30.762,-40.039,-41.992,0.000
1621213924.718,-11.719,-33.691,-39.062,-38.086,0.000
1621213924.722,-40.039,-36.133,-42.969,-17.090,0.000
1621213924.726,-44.434,-34.180,-36.133,-7.324,0.000
1621213924.730,-39.551,-34.668,-38.574,-16.602,0.000
1621213924.733,-28.809,-39.551,-46.875,-22.949,0.000
1621213924.737,-29.297,-34.180,-46.387,-29.785,0.000
1621213924.741,-23.926,-37.109,-37.598,-42.969,0.000
1621213924.745,-34.668,-33.691,-32.227,-42.969,0.000
1621213924.749,-54.688,-35.645,-33.691,-37.109,0.000
1621213924.753,-46.875,-41.016,-42.480,-32.227,0.000
1621213924.757,-39.062,-39.551,-51.758,-41.016,0.000
1621213924.761,-41.016,-37.109,-50.293,-25.391,0.000
1621213924.765,-52.734,-27.832,-39.551,-0.488,0.000
1621213924.769,-25.391,-32.715,-28.320,-27.832,0.000
1621213924.773,-20.508,-33.691,-29.297,-52.734,0.000
1621213924.776,-45.898,-30.762,-44.434,-56.152,0.000
1621213924.780,-18.555,-33.203,-48.828,-30.762,0.000
1621213924.784,-13.672,-37.598,-39.062,-40.039,0.000
1621213924.788,-32.715,-31.250,-39.551,-65.430,0.000
1621213924.792,-25.391,-29.297,-40.039,-27.832,0.000
1621213924.796,-13.184,-35.156,-39.551,-35.645,0.000
1621213924.800,-19.531,-30.273,-42.480,-53.711,0.000
1621213924.804,-17.578,-29.785,-39.551,-17.090,0.000
1621213924.808,-16.602,-37.598,-38.086,-10.742,0.000
1621213924.812,-17.090,-33.691,-37.598,-20.020,0.000
1621213924.815,-2.441,-20.508,-37.598,-9.277,0.000
1621213924.819,-7.324,-23.438,-41.992,-5.371,0.000
1621213924.823,-29.785,-38.086,-37.598,-31.250,0.000
1621213924.827,-12.695,-38.086,-36.133,-32.715,0.000
1621213924.831,-19.043,-30.762,-41.016,-18.066,0.000
1621213924.835,-29.785,-33.691,-40.527,-2.930,0.000
1621213924.839,-26.855,-35.645,-38.574,-7.812,0.000
1621213924.843,-28.809,-31.738,-34.668,-23.926,0.000
1621213924.847,-21.973,-27.832,-34.668,-17.090,0.000
1621213924.851,-27.344,-26.367,-33.691,-9.766,0.000
1621213924.855,-15.625,-25.391,-38.086,-15.137,0.000
1621213924.858,-13.184,-29.785,-37.598,-27.832,0.000
1621213924.862,-27.344,-34.180,-35.156,-20.996,0.000
1621213924.866,-32.715,-29.785,-35.645,-33.691,0.000
1621213924.870,-30.762,-32.715,-34.668,-41.504,0.000
1621213924.874,-28.320,-37.109,-39.551,-39.551,0.000
1621213924.878,-29.297,-37.598,-43.457,-59.570,0.000
1621213924.882,-17.578,-32.227,-38.574,-36.621,0.000
1621213924.886,-24.414,-32.715,-35.645,-12.207,0.000
1621213924.890,-35.156,-32.227,-34.180,-37.109,0.000
1621213924.894,-22.949,-25.879,-26.855,-25.879,0.000
1621213924.898,-13.672,-26.855,-26.855,-17.090,0.000
1621213924.901,-20.020,-29.785,-31.250,-23.438,0.000
1621213924.905,-27.832,-29.785,-36.621,-26.367,0.000
1621213924.909,-24.414,-33.203,-38.574,-31.738,0.000
1621213924.913,-13.184,-29.297,-32.715,-21.484,0.000
1621213924.917,-0.488,-24.902,-26.367,-22.461,0.000
1621213924.921,-15.137,-26.367,-25.391,-18.555,0.000
1621213924.925,-31.250,-25.391,-30.762,-10.254,0.000
1621213924.929,-35.156,-33.203,-34.668,-30.762,0.000
1621213924.933,-43.457,-35.156,-38.574,-46.387,0.000
1621213924.937,-29.297,-30.762,-38.086,-28.320,0.000
1621213924.940,-33.691,-31.250,-34.180,-22.461,0.000
1621213924.944,-41.504,-28.809,-29.297,-21.484,0.000
1621213924.948,-41.016,-25.879,-32.715,-22.461,0.000
1621213924.952,-33.203,-23.438,-39.551,-3.906,0.000
1621213924.956,-22.949,-26.367,-39.551,-17.578,0.000
1621213924.960,-32.227,-33.691,-36.621,-35.645,0.000
1621213924.964,-24.414,-27.832,-30.762,-36.133,0.000
1621213924.968,-23.926,-34.668,-23.438,-33.203,0.000
1621213924.972,-38.086,-38.574,-28.809,-14.160,0.000
1621213924.976,-26.855,-35.645,-33.203,-26.367,0.000
1621213924.980,-15.137,-33.691,-30.762,-29.297,0.000
1621213924.983,-15.625,-28.809,-32.227,-3.906,0.000
1621213924.987,-16.602,-33.691,-31.250,-7.324,0.000
1621213924.991,-28.809,-36.133,-32.227,-28.320,0.000
1621213924.995,-27.344,-37.109,-38.574,-41.504,0.000
1621213924.999,-34.180,-39.551,-37.598,-34.668,0.000
1621213925.003,-52.246,-39.062,-33.203,-19.531,0.000
1621213925.007,-34.668,-37.109,-36.621,-17.090,0.000
1621213925.011,-23.438,-34.668,-30.762,-16.602,0.000
1621213925.015,-26.855,-26.855,-25.391,-6.836,0.000
1621213925.019,-16.113,-26.367,-30.273,-14.648,0.000
1621213925.023,-12.695,-25.879,-35.156,-28.809,0.000
1621213925.026,-2.441,-23.926,-36.133,-30.762,0.000
1621213925.030,-15.625,-31.250,-33.691,-32.715,0.000
1621213925.034,-28.320,-33.691,-32.227,-10.742,0.000
1621213925.038,-16.602,-28.320,-34.180,-14.160,0.000
1621213925.042,-20.020,-33.691,-32.227,-32.715,0.000
1621213925.046,-37.109,-33.691,-32.227,-27.344,0.000
1621213925.050,-40.039,-30.762,-33.691,-39.062,0.000
1621213925.054,-34.180,-32.227,-29.785,-34.668,0.000
1621213925.058,-27.832,-27.344,-36.133,-37.109,0.000
1621213925.062,-41.504,-30.762,-43.457,-58.105,0.000
1621213925.065,-47.363,-40.039,-39.551,-43.457,0.000
1621213925.069,-34.668,-40.527,-40.527,-27.832,0.000
1621213925.073,-48.340,-30.273,-44.922,-31.738,0.000
1621213925.077,-44.922,-27.832,-40.527,-21.973,0.000
1621213925.081,-34.180,-30.273,-37.109,-22.949,0.000
1621213925.085,-40.527,-31.738,-34.668,-51.758,0.000
1621213925.089,-32.227,-33.691,-32.715,-48.340,0.000
1621213925.093,-38.086,-28.320,-29.297,-37.109,0.000
1621213925.097,-39.062,-25.391,-33.691,-29.785,0.000
1621213925.101,-4.883,-31.738,-27.832,-1.953,0.000
1621213925.105,11.719,-24.902,-25.391,16.602,0.000
1621213925.108,-17.578,-19.043,-31.250,-36.133,0.000
1621213925.112,-57.617,-21.484,-36.133,-59.082,0.000
1621213925.116,-55.664,-18.555,-38.574,-37.598,0.000
1621213925.120,-51.270,-17.090,-40.527,-55.176,0.000
1621213925.124,-37.598,-14.648,-53.223,-73.730,0.000
1621213925.128,-19.531,-13.672,-61.035,-58.105,0.000
1621213925.132,-27.832,-19.531,-63.965,-47.852,0.000
1621213925.136,-32.715,-13.672,-58.594,-49.316,0.000
1621213925.140,-45.898,-11.719,-60.547,-46.387,0.000
1621213925.144,-47.852,-20.996,-64.941,-45.898,0.000
1621213925.147,-15.625,-20.020,-60.547,-20.020,0.000
1621213925.151,-10.254,-18.066,-57.617,-19.043,0.000
1621213925.155,-22.461,-25.879,-56.152,-20.996,0.000
1621213925.159,-19.531,-26.855,-58.594,-27.344,0.000
1621213925.163,-30.762,-31.738,-52.734,-49.805,0.000
1621213925.167,-20.996,-37.109,-51.270,-54.688,0.000
1621213925.171,-18.066,-27.344,-56.152,-48.828,0.000
1621213925.175,-20.508,-24.414,-57.129,-38.086,0.000
1621213925.179,-24.902,-26.367,-50.781,-43.945,0.000
1621213925.183,-20.508,-22.949,-42.480,-51.758,0.000
1621213925.187,-10.742,-23.438,-42.480,-43.457,0.000
1621213925.190,-17.578,-22.949,-43.945,-29.297,0.000
1621213925.194,-24.414,-22.461,-41.504,-21.973,0.000
1621213925.198,-19.043,-25.879,-44.434,-32.227,0.000
1621213925.202,-26.855,-31.738,-44.922,-25.391,0.000
1621213925.206,-39.551,-32.715,-41.504,-20.508,0.000
1621213925.210,-36.621,-26.855,-39.062,-24.414,0.000
1621213925.214,-27.344,-29.785,-30.762,-21.484,0.000
1621213925.218,-28.809,-32.715,-26.855,-30.273,0.000
1621213925.222,-28.320,-32.227,-39.551,-20.996,0.000
1621213925.226,-20.996,-41.992,-47.852,-35.156,0.000
1621213925.230,-28.809,-47.852,-45.898,-53.223,0.000
1621213925.233,-32.227,-36.133,-41.016,-36.133,0.000
1621213925.237,-25.391,-26.855,-41.992,-37.598,0.000
1621213925.241,-27.832,-27.832,-48.828,-52.246,0.000
1621213925.245,-31.250,-28.809,-49.805,-40.039,0.000
1621213925.249,-12.207,-27.344,-45.898,-42.480,0.000
1621213925.253,-16.113,-32.715,-46.875,-44.922,0.000
1621213925.257,-47.852,-38.574,-47.363,-31.738,0.000
1621213925.261,-33.203,-39.062,-39.551,-33.691,0.000
1621213925.265,-30.762,-31.738,-33.691,-45.410,0.000
1621213925.269,-31.738,-26.367,-35.156,-24.902,0.000
1621213925.272,-26.367,-35.645,-36.133,-43.457,0.000
1621213925.276,-36.133,-37.109,-37.598,-30.273,0.000
1621213925.280,-30.762,-25.879,-35.156,-22.949,0.000
1621213925.284,-33.203,-22.949,-33.203,-46.387,0.000
1621213925.288,-28.320,-24.902,-40.039,-23.438,0.000
1621213925.292,-6.348,-32.715,-40.039,-5.859,0.000
1621213925.296,-12.695,-34.180,-39.062,-25.391,0.000
1621213925.300,-25.879,-24.902,-37.109,-58.594,0.000
1621213925.304,-32.715,-20.508,-42.480,-56.641,0.000
1621213925.308,-50.781,-25.879,-51.270,-40.039,0.000
1621213925.312,-49.805,-25.391,-52.246,-52.246,0.000
1621213925.315,-47.852,-18.066,-60.547,-81.055,0.000
1621213925.319,-43.457,-22.949,-60.547,-53.223,0.000
1621213925.323,-55.664,-24.414,-57.129,-35.645,0.000
1621213925.327,-62.500,-20.020,-57.129,-67.383,0.000
1621213925.331,-54.688,-21.973,-50.781,-66.406,0.000
1621213925.335,-49.805,-18.555,-47.363,-65.430,0.000
1621213925.339,-55.176,-16.602,-47.363,-58.105,0.000
1621213925.343,-45.410,-25.879,-49.316,-34.668,0.000
1621213925.347,-44.922,-37.109,-50.293,-47.363,0.000
1621213925.351,-58.594,-32.227,-41.504,-48.828,0.000
1621213925.355,-54.688,-20.508,-40.527,-33.203,0.000
1621213925.358,-48.340,-29.297,-46.387,-41.992,0.000
1621213925.362,-42.969,-34.668,-41.016,-41.504,0.000
1621213925.366,-49.805,-31.250,-45.410,-42.969,0.000
1621213925.370,-43.457,-39.062,-51.270,-51.758,0.000
1621213925.374,-30.762,-31.250,-52.734,-54.199,0.000
1621213925.378,-35.156,-21.484,-53.223,-43.457,0.000
1621213925.382,-53.223,-28.320,-44.434,-51.270,0.000
1621213925.386,-52.734,-23.926,-43.945,-45.410,0.000
1621213925.390,-48.340,-25.879,-45.898,-24.902,0.000
1621213925.394,-43.945,-28.809,-47.363,-43.457,0.000
1621213925.397,-41.992,-35.645,-47.363,-62.988,0.000
1621213925.401,-37.109,-35.156,-49.805,-59.082,0.000
1621213925.405,-15.625,-24.902,-54.199,-27.344,0.000
1621213925.409,-12.695,-25.391,-54.199,-36.133,0.000
1621213925.413,-29.785,-25.879,-48.340,-45.898,0.000
1621213925.417,-40.527,-26.855,-48.340,-28.809,0.000
1621213925.421,-31.738,-30.762,-45.410,-44.434,0.000
1621213925.425,-33.691,-28.809,-40.039,-43.945,0.000
1621213925.429,-43.945,-32.227,-42.969,-46.387,0.000
1621213925.433,-37.598,-28.809,-42.969,-48.828,0.000
1621213925.437,-32.227,-18.066,-44.434,-38.574,0.000
1621213925.440,-41.992,-23.926,-44.922,-46.387,0.000
1621213925.444,-56.641,-30.273,-41.504,-39.062,0.000
1621213925.448,-51.270,-28.809,-43.945,-44.434,0.000
1621213925.452,-38.574,-37.109,-40.527,-62.988,0.000
1621213925.456,-45.898,-41.992,-35.645,-42.480,0.000
1621213925.460,-48.340,-26.855,-43.457,-30.273,0.000
1621213925.464,-45.410,-23.926,-42.969,-45.410,0.000
1621213925.468,-26.367,-30.762,-42.969,-26.367,0.000
1621213925.472,-19.043,-25.879,-54.688,-21.973,0.000
1621213925.476,-37.109,-36.133,-46.875,-38.086,0.000
1621213925.479,-44.434,-34.668,-41.504,-34.180,0.000
1621213925.483,-46.387,-22.949,-43.457,-42.480,0.000
1621213925.487,-38.086,-30.273,-38.574,-35.645,0.000
1621213925.491,-42.969,-30.273,-45.410,-32.715,0.000
1621213925.495,-45.410,-38.086,-46.875,-37.109,0.000
1621213925.499,-32.227,-38.086,-40.527,-49.805,0.000
1621213925.503,-32.227,-32.227,-39.062,-40.527,0.000
1621213925.507,-38.574,-35.156,-39.062,-25.391,0.000
1621213925.511,-24.902,-28.320,-41.016,-49.805,0.000
1621213925.515,-28.320,-24.414,-36.133,-38.086,0.000
1621213925.519,-28.320,-17.578,-37.109,-16.113,0.000
1621213925.522,-17.578,-22.461,-47.852,-30.273,0.000
1621213925.526,-14.648,-29.785,-49.805,-31.738,0.000
1621213925.530,-13.672,-23.926,-43.457,-31.250,0.000
1621213925.534,-57.617,-32.715,-39.062,-70.801,0.000
1621213925.538,-67.871,-30.762,-46.875,-82.520,0.000
1621213925.542,-55.176,-20.996,-54.688,-75.195,0.000
1621213925.546,-62.012,-22.949,-60.059,-81.055,0.000
1621213925.550,-92.285,-34.180,-55.176,-94.238,0.000
1621213925.554,-107.910,-33.203,-55.664,-103.027,0.000
1621213925.558,-94.238,-27.832,-59.570,-101.562,0.000
1621213925.562,-83.496,-28.809,-63.965,-109.863,0.000
1621213925.565,-81.055,-24.902,-62.988,-100.586,0.000
1621213925.569,-77.637,-25.879,-62.500,-94.727,0.000
1621213925.573,-73.730,-38.574,-56.641,-73.730,0.000
1621213925.577,-95.703,-38.574,-48.340,-83.496,0.000
1621213925.581,-101.074,-29.297,-54.199,-90.820,0.000
1621213925.585,-75.195,-32.227,-52.246,-79.590,0.000
1621213925.589,-50.781,-34.668,-48.828,-61.035,0.000
1621213925.593,-53.223,-24.414,-48.340,-55.176,0.000
1621213925.597,-58.594,-22.949,-39.062,-74.219,0.000
1621213925.601,-54.688,-30.273,-35.645,-57.617,0.000
1621213925.604,-47.852,-30.273,-40.527,-32.227,0.000
1621213925.608,-44.922,-29.785,-40.527,-28.320,0.000
1621213925.612,-49.316,-32.227,-40.039,-31.250,0.000
1621213925.616,-46.387,-31.738,-44.922,-52.246,0.000
1621213925.620,-48.828,-29.297,-39.062,-57.129,0.000
1621213925.624,-41.504,-30.273,-30.762,-28.809,0.000
1621213925.628,-27.344,-26.855,-34.668,-44.922,0.000
1621213925.632,-28.320,-30.762,-37.109,-32.227,0.000
1621213925.636,-20.508,-30.762,-35.645,-26.855,0.000
1621213925.640,-24.414,-31.250,-31.738,-44.922,0.000
1621213925.644,-38.574,-34.180,-36.133,-29.297,0.000
1621213925.647,-43.457,-35.645,-41.504,-29.785,0.000
1621213925.651,-30.762,-33.203,-39.062,-42.480,0.000
1621213925.655,-20.508,-33.203,-40.527,-49.805,0.000
1621213925.659,-25.391,-26.855,-41.016,-31.250,0.000
1621213925.663,-18.555,-25.879,-42.480,-34.668,0.000
1621213925.667,-33.203,-39.551,-41.504,-40.039,0.000
1621213925.671,-37.598,-37.598,-41.992,-41.992,0.000
1621213925.675,-23.438,-32.715,-46.387,-53.223,0.000
1621213925.679,-39.551,-33.691,-34.180,-39.551,0.000
1621213925.683,-11.230,-29.785,-38.574,-33.691,0.000
1621213925.687,-20.996,-26.855,-40.527,-39.062,0.000
1621213925.690,-40.527,-31.250,-34.180,-31.250,0.000
1621213925.694,-6.836,-37.109,-34.180,-26.367,0.000
1621213925.698,-23.926,-29.785,-37.598,-50.293,0.000
1621213925.702,-32.227,-21.973,-40.039,-52.734,0.000
1621213925.706,-27.832,-27.344,-41.016,-37.109,0.000
1621213925.710,-26.855,-31.250,-39.062,-28.809,0.000
1621213925.714,-19.043,-26.367,-27.832,-30.762,0.000
1621213925.718,-16.113,-28.320,-23.438,-40.527,0.000
1621213925.722,-19.043,-29.785,-30.762,-25.879,0.000
1621213925.726,-19.043,-30.762,-40.527,-13.672,0.000
1621213925.729,-29.297,-34.668,-41.992,-45.410,0.000
1621213925.733,-36.133,-31.738,-36.133,-53.711,0.000
1621213925.737,-25.391,-31.738,-33.691,-30.762,0.000
1621213925.741,-26.855,-31.250,-32.715,-31.738,0.000
1621213925.745,-15.137,-28.809,-35.645,-23.926,0.000
1621213925.749,-18.066,-26.855,-36.621,-33.203,0.000
1621213925.753,-39.551,-40.039,-33.691,-46.387,0.000
1621213925.757,-9.766,-43.945,-35.156,-29.297,0.000
1621213925.761,-6.836,-38.574,-38.574,-8.301,0.000
1621213925.765,-33.203,-41.016,-42.480,8.789,0.000
1621213925.769,-2.441,-32.227,-46.875,-18.555,0.000
1621213925.772,-9.766,-34.180,-37.109,-28.809,0.000
1621213925.776,-57.617,-41.016,-36.621,-54.199,0.000
1621213925.780,-41.992,-35.645,-40.527,-50.293,0.000
1621213925.784,-50.781,-38.086,-34.668,-21.973,0.000
1621213925.788,-50.781,-41.992,-40.527,-39.062,0.000
1621213925.792,-22.949,-42.480,-46.875,-60.547,0.000
1621213925.796,-39.551,-41.016,-47.363,-62.500,0.000
1621213925.800,-30.273,-36.133,-53.711,-29.297,0.000
1621213925.804,-5.859,-33.691,-55.664,-8.301,0.000
1621213925.808,-16.602,-38.086,-46.875,-23.926,0.000
1621213925.812,-17.090,-42.969,-40.039,-27.344,0.000
1621213925.815,-25.879,-41.016,-34.180,-21.973,0.000
1621213925.819,-35.156,-40.527,-32.715,-10.742,0.000
1621213925.823,-31.250,-40.039,-41.016,-35.645,0.000
1621213925.827,-34.180,-38.086,-51.758,-39.062,0.000
1621213925.831,-15.625,-30.762,-51.270,-24.902,0.000
1621213925.835,-31.250,-33.691,-43.457,-17.090,0.000
1621213925.839,-47.852,-39.551,-33.691,1.953,0.000
1621213925.843,-23.438,-41.992,-45.410,-16.113,0.000
1621213925.847,-26.367,-41.504,-57.129,-36.133,0.000
1621213925.851,-34.668,-30.762,-41.016,-29.297,0.000
1621213925.854,-26.367,-32.227,-25.391,-20.020,0.000
1621213925.858,-17.578,-32.715,-23.926,-22.461,0.000
1621213925.862,-19.531,-26.367,-27.832,-35.645,0.000
1621213925.866,-28.320,-29.785,-27.344,-28.320,0.000
1621213925.870,-38.086,-31.250,-32.715,-23.438,0.000
1621213925.874,-55.664,-30.273,-32.715,-30.273,0.000
1621213925.878,-46.387,-23.926,-33.203,-39.551,0.000
1621213925.882,-27.832,-25.391,-38.086,-41.504,0.000
1621213925.886,-22.949,-31.738,-38.086,-39.062,0.000
1621213925.890,-31.738,-40.039,-37.109,-43.457,0.000
1621213925.894,-41.016,-46.875,-25.879,-53.711,0.000
1621213925.897,-41.504,-40.527,-35.645,-45.898,0.000
1621213925.901,-30.762,-28.320,-44.922,-32.227,0.000
1621213925.905,-33.691,-36.621,-27.344,-28.809,0.000
1621213925.909,-41.992,-29.297,-26.367,-43.457,0.000
1621213925.913,-37.598,-15.625,-44.434,-50.293,0.000
1621213925.917,-43.945,-27.832,-42.969,-35.645,0.000
1621213925.921,-46.387,-32.227,-36.133,-51.270,0.000
1621213925.925,-33.691,-35.156,-40.527,-54.199,0.000
1621213925.929,-29.785,-46.875,-31.738,-42.480,0.000
1621213925.933,-53.223,-44.434,-30.273,-58.105,0.000
1621213925.936,-55.664,-37.109,-34.180,-59.570,0.000
1621213925.940,-18.555,-32.227,-26.367,-29.785,0.000
1621213925.944,-16.113,-27.832,-29.297,-13.184,0.000
1621213925.948,-26.367,-35.156,-31.738,-39.062,0.000
1621213925.952,-23.926,-42.480,-25.391,-16.113,0.000
1621213925.956,-15.137,-32.715,-26.367,2.930,0.000
1621213925.960,-28.809,-32.715,-33.203,-57.129,0.000
1621213925.964,-63.965,-22.461,-35.645,-61.523,0.000
1621213925.968,-62.988,-28.809,-38.086,-38.574,0.000
1621213925.972,-56.641,-48.340,-47.363,-42.969,0.000
1621213925.976,-67.383,-36.621,-45.410,-58.594,0.000
1621213925.979,-60.059,-28.320,-42.969,-67.871,0.000
1621213925.983,-42.480,-31.738,-44.922,-62.988,0.000
1621213925.987,-28.809,-27.344,-46.875,-46.387,0.000
1621213925.991,-40.039,-27.344,-50.781,-37.109,0.000
1621213925.995,-43.457,-25.391,-52.734,-62.500,0.000
1621213925.999,-26.855,-25.391,-49.316,-62.012,0.000
1621213926.003,-27.344,-31.250,-50.781,-37.109,0.000
1621213926.007,-30.762,-34.668,-51.758,-54.199,0.000
1621213926.011,-0.977,-33.691,-43.457,-57.129,0.000
1621213926.015,-4.883,-26.855,-51.758,-43.945,0.000
1621213926.019,-39.062,-26.367,-53.711,-47.852,0.000
1621213926.022,-32.715,-30.273,-41.992,-57.617,0.000
1621213926.026,-37.109,-32.715,-49.316,-55.664,0.000
1621213926.030,-51.270,-33.203,-47.852,-46.387,0.000
1621213926.034,-38.574,-29.785,-41.016,-47.852,0.000
1621213926.038,-36.621,-39.062,-42.969,-26.855,0.000
1621213926.042,-31.250,-39.062,-41.016,-27.344,0.000
1621213926.046,-41.504,-34.180,-45.898,-34.180,0.000
1621213926.050,-49.805,-33.203,-47.363,-44.434,0.000
1621213926.054,-28.320,-37.598,-41.992,-59.082,0.000
1621213926.058,-9.277,-34.180,-39.062,-30.762,0.000
1621213926.061,-10.254,-26.855,-40.527,-23.926,0.000
1621213926.065,-14.648,-21.973,-36.621,-29.785,0.000
1621213926.069,-25.879,-18.066,-32.227,-46.387,0.000
1621213926.073,-25.391,-20.996,-35.156,-47.363,0.000
1621213926.077,-39.062,-22.461,-34.180,-27.344,0.000
1621213926.081,-39.062,-20.508,-35.645,-36.133,0.000
1621213926.085,-29.785,-18.555,-39.062,-41.992,0.000
1621213926.089,-37.109,-21.973,-40.039,-47.363,0.000
1621213926.093,-36.621,-28.809,-42.969,-46.875,0.000
1621213926.097,-28.320,-32.715,-42.969,-37.109,0.000
1621213926.101,-26.855,-32.227,-37.109,-46.875,0.000
1621213926.104,-32.227,-27.344,-39.062,-45.898,0.000
1621213926.108,-26.367,-25.391,-36.621,-51.270,0.000
1621213926.112,-25.391,-37.109,-40.039,-48.340,0.000
1621213926.116,-30.273,-43.457,-47.852,-43.457,0.000
1621213926.120,-29.297,-32.227,-53.711,-52.734,0.000
1621213926.124,-39.551,-37.598,-54.199,-55.664,0.000
1621213926.128,-22.949,-34.180,-42.969,-40.527,0.000
1621213926.132,-15.625,-25.879,-38.574,-28.809,0.000
1621213926.136,-49.316,-38.086,-38.574,-38.086,0.000
1621213926.140,-32.715,-36.133,-38.086,-25.391,0.000
1621213926.144,-6.836,-30.762,-40.039,-18.066,0.000
1621213926.147,0.000,-30.762,-42.969,-44.434,0.000
1621213926.151,-17.090,-27.832,-40.527,-30.762,0.000
1621213926.155,-24.414,-29.297,-36.133,-20.508,0.000
1621213926.159,-14.648,-33.203,-36.133,-32.227,0.000
1621213926.163,-26.855,-36.621,-30.273,-33.691,0.000
1621213926.167,-35.645,-29.785,-36.133,-38.086,0.000
1621213926.171,-18.066,-24.414,-46.387,-20.020,0.000
1621213926.175,-17.090,-28.809,-38.086,-10.742,0.000
1621213926.179,-36.133,-33.691,-27.832,-18.555,0.000
1621213926.183,-29.785,-31.738,-34.180,-36.133,0.000
1621213926.186,-50.293,-33.691,-29.785,-36.621,0.000
1621213926.190,-54.688,-38.086,-14.648,-16.602,0.000
1621213926.194,-39.551,-42.969,-18.555,-29.297,0.000
1621213926.198,-34.668,-44.434,-28.320,-33.203,0.000
1621213926.202,-54.199,-48.340,-24.414,-20.508,0.000
1621213926.206,-51.758,-49.805,-22.461,-33.203,0.000
1621213926.210,-14.160,-49.316,-25.391,-42.969,0.000
1621213926.214,-6.836,-49.805,-15.137,-30.762,0.000
1621213926.218,-40.527,-41.992,-15.137,-27.344,0.000
1621213926.222,-28.320,-39.551,-25.879,-27.344,0.000
1621213926.226,-9.277,-31.738,-14.160,-1.465,0.000
1621213926.229,-9.277,-33.691,-19.531,-10.742,0.000
1621213926.233,-15.137,-41.992,-26.855,-26.855,0.000
1621213926.237,-20.996,-42.969,-24.414,-16.113,0.000
1621213926.241,-19.043,-41.992,-21.484,-7.812,0.000
1621213926.245,-38.086,-48.340,-20.996,-0.977,0.000
1621213926.249,-33.203,-45.898,-30.762,-15.137,0.000
1621213926.253,0.488,-32.715,-27.344,-37.598,0.000
1621213926.257,-3.906,-39.062,-27.832,-48.828,0.000
1621213926.261,-9.766,-42.969,-32.715,-38.086,0.000
1621213926.265,-27.344,-38.086,-30.762,-17.578,0.000
1621213926.269,-35.156,-31.738,-28.320,-16.113,0.000
1621213926.272,-16.602,-30.762,-24.902,-14.160,0.000
1621213926.276,-15.137,-36.621,-22.949,-20.508,0.000
1621213926.280,-22.949,-46.875,-25.391,-29.297,0.000
1621213926.284,-30.762,-41.504,-32.715,-19.043,0.000
1621213926.288,-27.832,-31.250,-33.203,-10.254,0.000
1621213926.292,-1.465,-31.250,-30.273,-12.207,0.000
1621213926.296,-27.832,-28.320,-28.809,-22.949,0.000
1621213926.300,-51.758,-29.297,-26.367,-1.465,0.000
1621213926.304,-31.738,-36.621,-27.344,-6.836,0.000
1621213926.308,-8.789,-44.922,-30.762,-31.250,0.000
1621213926.311,-31.738,-47.363,-27.832,-24.414,0.000
1621213926.315,-41.992,-42.480,-37.598,-26.367,0.000
1621213926.319,-23.926,-47.852,-42.969,-24.902,0.000
1621213926.323,-30.762,-48.828,-41.992,-35.156,0.000
1621213926.327,-46.387,-39.062,-47.852,-38.574,0.000
1621213926.331,-49.805,-42.480,-38.574,-39.062,0.000
1621213926.335,-34.668,-37.598,-33.203,-36.133,0.000
1621213926.339,-33.691,-32.227,-35.645,-40.039,0.000
1621213926.343,-37.598,-34.668,-41.016,-29.297,0.000
1621213926.347,-16.113,-33.203,-39.551,-16.113,0.000
1621213926.351,-35.645,-31.250,-33.203,-41.016,0.000
1621213926.354,-37.109,-26.855,-38.086,-42.480,0.000
1621213926.358,-4.883,-30.273,-35.156,-12.695,0.000
1621213926.362,-19.531,-38.574,-34.180,-23.926,0.000
1621213926.366,-30.273,-28.809,-54.688,-45.410,0.000
1621213926.370,-33.691,-27.344,-56.641,-26.367,0.000
1621213926.374,-31.250,-32.227,-43.457,-22.461,0.000
1621213926.378,-44.922,-32.715,-42.969,-40.527,0.000
1621213926.382,-56.641,-36.133,-42.480,-60.547,0.000
1621213926.386,-22.949,-34.668,-43.945,-51.270,0.000
1621213926.390,-8.789,-31.738,-47.363,-35.156,0.000
1621213926.394,-57.129,-30.273,-37.598,-49.316,0.000
1621213926.397,-41.992,-34.180,-35.645,-32.715,0.000
1621213926.401,-10.742,-32.227,-36.621,-26.855,0.000
1621213926.405,-35.156,-22.949,-28.320,-40.527,0.000
1621213926.409,-39.551,-30.273,-29.785,-44.434,0.000
1621213926.413,-36.621,-36.133,-27.344,-32.715,0.000
1621213926.417,-30.762,-28.809,-28.809,-9.766,0.000
1621213926.421,-18.555,-28.320,-39.062,-17.578,0.000
1621213926.425,-20.996,-34.180,-40.527,-41.504,0.000
1621213926.429,-29.785,-38.086,-33.203,-27.832,0.000
1621213926.433,-33.691,-33.203,-21.484,-16.602,0.000
1621213926.436,-36.621,-28.320,-26.367,-48.340,0.000
1621213926.440,-29.297,-30.273,-25.879,-53.711,0.000
1621213926.444,-28.320,-27.344,-22.461,-32.227,0.000
1621213926.448,-22.461,-30.273,-26.855,-49.805,0.000
1621213926.452,-28.320,-39.551,-26.855,-54.688,0.000
1621213926.456,-41.016,-37.109,-29.297,-34.180,0.000
1621213926.460,-23.438,-27.832,-29.297,-23.438,0.000
1621213926.464,-12.207,-27.832,-36.133,-1.953,0.000
1621213926.468,-11.719,-44.922,-43.457,-12.207,0.000
1621213926.472,-20.508,-41.504,-37.598,-44.922,0.000
1621213926.476,-25.879,-30.762,-37.598,-23.438,0.000
1621213926.479,-26.855,-37.109,-36.621,-44.434,0.000
1621213926.483,-27.832,-31.250,-31.250,-70.801,0.000
1621213926.487,-30.273,-29.785,-33.691,-37.109,0.000
1621213926.491,-39.551,-26.367,-33.203,-20.996,0.000
1621213926.495,-26.367,-13.184,-39.062,-21.973,0.000
1621213926.499,-61.035,-30.273,-27.832,-58.594,0.000
1621213926.503,-55.664,-51.758,-29.297,-38.086,0.000
1621213926.507,-45.410,-48.340,-46.387,-33.691,0.000
1621213926.511,-77.637,-37.598,-37.109,-76.660,0.000
1621213926.515,-72.754,-39.062,-25.391,-65.918,0.000
1621213926.519,-59.570,-46.875,-24.414,-76.172,0.000
1621213926.522,-63.477,-40.527,-16.113,-76.660,0.000
1621213926.526,-41.504,-29.785,-23.926,-19.531,0.000
1621213926.530,-51.270,-39.551,-26.367,-10.742,0.000
1621213926.534,-63.477,-45.898,-25.879,-43.945,0.000
1621213926.538,-34.668,-47.852,-10.742,-26.855,0.000
1621213926.542,-40.527,-49.805,-7.812,-48.340,0.000
1621213926.546,-47.363,-39.062,-32.715,-68.359,0.000
1621213926.550,-42.480,-44.922,-13.184,-69.824,0.000
1621213926.554,-40.039,-30.273,-32.227,-55.176,0.000
1621213926.558,-39.551,-25.391,-51.270,-11.719,0.000
1621213926.561,-31.250,-38.086,-13.184,-28.809,0.000
1621213926.565,-24.414,-35.645,5.371,-0.488,0.000
1621213926.569,-2.930,-33.691,-45.898,5.859,0.000
1621213926.573,-18.066,-56.152,-29.297,-85.938,0.000
1621213926.577,-45.410,-64.453,-21.484,-83.496,0.000
1621213926.581,-15.137,-27.832,-65.918,0.977,0.000
1621213926.585,-42.480,-15.137,-25.391,-4.883,0.000
1621213926.589,-49.316,-22.461,-5.859,-23.926,0.000
1621213926.593,-22.461,-28.320,-10.254,-20.996,0.000
1621213926.597,-25.391,-32.227,-2.930,-114.258,0.000
1621213926.601,-23.438,-28.809,-40.039,-131.348,0.000
1621213926.604,-16.602,-26.855,-78.613,15.625,0.000
1621213926.608,-30.762,-32.227,-28.320,20.508,0.000
1621213926.612,-22.949,-37.109,-13.184,-27.344,0.000
1621213926.616,-1.953,-33.203,-35.156,-21.973,0.000
1621213926.620,-25.391,-34.180,-36.621,-26.855,0.000
1621213926.624,-47.852,-39.062,-43.457,-28.809,0.000
1621213926.628,-42.969,-43.457,-26.855,-39.551,0.000
1621213926.632,-40.039,-49.805,-6.348,-44.434,0.000
1621213926.636,-19.043,-41.016,-29.297,3.418,0.000
1621213926.640,-14.648,-37.109,-51.758,-49.316,0.000
1621213926.643,-13.184,-42.480,-51.270,-40.527,0.000
1621213926.647,-12.695,-40.039,-45.410,-4.395,0.000
1621213926.651,-33.203,-37.109,-47.852,-38.574,0.000
1621213926.655,-50.293,-36.133,-36.133,-57.129,0.000
1621213926.659,-29.297,-40.039,-44.922,-56.641,0.000
1621213926.663,-12.695,-45.898,-28.320,-33.691,0.000
1621213926.667,-1.953,-38.086,-28.320,-18.066,0.000
1621213926.671,-19.043,-39.551,-32.227,-32.227,0.000
1621213926.675,-23.438,-39.062,-42.969,-18.066,0.000
1621213926.679,-25.391,-31.250,-39.062,-42.480,0.000
1621213926.683,-26.367,-33.691,-23.438,-39.062,0.000
1621213926.686,-17.578,-35.645,-33.691,-11.230,0.000
1621213926.690,-13.672,-42.969,-33.691,-26.855,0.000
1621213926.694,-19.043,-38.574,-37.598,-15.625,0.000
1621213926.698,-37.598,-25.879,-24.902,-28.809,0.000
1621213926.702,-17.090,-36.621,-19.043,-42.480,0.000
1621213926.706,1.953,-39.062,-26.367,-24.902,0.000
1621213926.710,-26.855,-32.227,-17.090,-15.625,0.000
1621213926.714,-41.016,-32.227,-25.879,-23.438,0.000
1621213926.718,-17.578,-28.320,-35.645,-25.391,0.000
1621213926.722,-15.625,-31.250,-21.973,-39.551,0.000
1621213926.726,-21.484,-32.715,-42.969,-33.203,0.000
1621213926.729,-19.043,-34.180,-41.016,-27.832,0.000
1621213926.733,-28.320,-29.297,-25.391,-32.715,0.000
1621213926.737,1.953,-28.809,-41.992,-16.602,0.000
1621213926.741,-2.441,-33.203,-29.297,-11.719,0.000
1621213926.745,-38.086,-31.738,-20.508,-11.719,0.000
1621213926.749,-21.973,-29.785,-29.785,-3.906,0.000
1621213926.753,-20.020,-39.551,-39.551,-20.020,0.000
1621213926.757,-16.113,-48.340,-37.109,-36.621,0.000
1621213926.761,-19.043,-53.223,-33.691,-31.738,0.000
1621213926.765,-34.180,-49.316,-37.109,-37.109,0.000
1621213926.768,-36.621,-30.762,-45.410,-34.180,0.000
1621213926.772,-42.480,-34.180,-30.273,-19.043,0.000
1621213926.776,-26.855,-42.969,-36.133,-17.090,0.000
1621213926.780,-29.785,-40.527,-25.879,-46.387,0.000
1621213926.784,-24.902,-35.645,-37.598,-38.086,0.000
1621213926.788,-16.113,-36.133,-55.664,-3.906,0.000
1621213926.792,-28.809,-43.945,-40.527,-20.020,0.000
1621213926.796,-34.668,-39.062,-23.926,-60.059,0.000
1621213926.800,-38.086,-34.668,-14.160,-52.246,0.000
1621213926.804,-31.250,-39.551,-32.715,-20.020,0.000
1621213926.808,-24.902,-48.340,-19.043,-20.020,0.000
1621213926.811,-44.922,-53.223,-24.414,-50.293,0.000
1621213926.815,-59.570,-55.176,-28.320,-56.641,0.000
1621213926.819,-59.570,-50.293,-18.066,-40.527,0.000
1621213926.823,-58.594,-38.574,-16.113,-33.203,0.000
1621213926.827,-45.898,-48.828,-16.113,-39.551,0.000
1621213926.831,-43.945,-58.105,-22.461,-53.711,0.000
1621213926.835,-35.156,-47.363,-17.578,-28.809,0.000
1621213926.839,-37.109,-42.969,-15.137,-30.273,0.000
1621213926.843,-55.664,-44.434,-20.508,-60.547,0.000
1621213926.847,-47.852,-42.480,-26.855,-45.898,0.000
1621213926.851,-30.762,-40.527,-23.438,-31.250,0.000
1621213926.854,-46.387,-47.852,-18.066,-26.367,0.000
1621213926.858,-66.406,-52.246,-22.949,-18.066,0.000
1621213926.862,-59.570,-44.434,-34.668,-31.738,0.000
1621213926.866,-51.758,-46.387,-33.691,-35.156,0.000
1621213926.870,-44.434,-37.598,-39.062,-10.742,0.000
1621213926.874,-31.738,-34.180,-40.039,-19.531,0.000
1621213926.878,-26.367,-44.922,-29.785,-51.758,0.000
1621213926.882,-30.762,-49.316,-31.250,-41.992,0.000
1621213926.886,-41.992,-36.133,-27.344,-50.293,0.000
1621213926.890,-41.504,-27.832,-22.949,-51.758,0.000
1621213926.893,-33.691,-37.109,-24.902,-38.574,0.000
1621213926.897,-19.531,-35.156,-31.250,-42.480,0.000
1621213926.901,-24.414,-29.785,-33.203,-34.180,0.000
1621213926.905,-32.715,-37.109,-31.250,-25.391,0.000
1621213926.909,-14.160,-40.527,-34.668,-12.207,0.000
1621213926.913,-11.719,-35.645,-36.621,-20.508,0.000
1621213926.917,-22.461,-27.344,-38.086,-35.645,0.000
1621213926.921,-31.250,-32.227,-39.551,-28.809,0.000
1621213926.925,-24.414,-41.504,-40.039,-19.043,0.000
1621213926.929,-26.367,-36.621,-33.203,-27.344,0.000
1621213926.933,-30.273,-28.809,-41.016,-35.156,0.000
1621213926.936,-44.922,-29.785,-46.387,-26.855,0.000
1621213926.940,-42.969,-29.297,-42.480,-28.809,0.000
1621213926.944,-46.387,-31.250,-48.828,-36.133,0.000
1621213926.948,-51.758,-35.156,-39.062,-48.828,0.000
1621213926.952,-44.434,-25.879,-35.645,-47.852,0.000
1621213926.956,-35.156,-20.996,-40.039,-19.531,0.000
1621213926.960,-16.113,-28.809,-39.551,-37.109,0.000
1621213926.964,-24.902,-36.133,-32.715,-58.594,0.000
1621213926.968,-40.527,-32.227,-29.785,-20.508,0.000
1621213926.972,-34.180,-31.738,-31.738,-3.906,0.000
1621213926.976,-20.020,-27.832,-37.598,-32.227,0.000
1621213926.979,-18.555,-27.344,-43.457,-59.570,0.000
1621213926.983,-43.457,-30.762,-39.551,-41.016,0.000
1621213926.987,-40.039,-28.809,-41.992,-28.809,0.000
1621213926.991,-36.133,-31.738,-40.527,-36.621,0.000
1621213926.995,-19.043,-32.715,-33.691,-30.762,0.000
1621213926.999,-15.625,-42.969,-28.809,-20.996,0.000
1621213927.003,-22.949,-35.645,-30.273,-30.273,0.000
1621213927.007,-22.461,-28.320,-48.340,-20.508,0.000
1621213927.011,-41.992,-32.715,-54.199,-12.207,0.000
1621213927.015,-42.969,-24.902,-38.574,-44.434,0.000
1621213927.018,-38.086,-28.320,-39.551,-53.223,0.000
1621213927.022,-51.270,-22.949,-47.363,-47.852,0.000
1621213927.026,-41.504,-23.438,-39.551,-42.480,0.000
1621213927.030,-32.715,-32.715,-35.645,-23.926,0.000
1621213927.034,-30.762,-34.180,-38.086,-45.410,0.000
1621213927.038,-20.996,-37.598,-42.969,-51.270,0.000
1621213927.042,-30.273,-38.086,-43.945,-40.039,0.000
1621213927.046,-37.598,-24.414,-41.992,-47.363,0.000
1621213927.050,-32.227,-18.066,-45.410,-36.621,0.000
1621213927.054,-29.785,-28.320,-43.457,-34.180,0.000
1621213927.058,-36.133,-34.668,-44.434,-28.320,0.000
1621213927.061,-38.086,-32.715,-37.109,-20.020,0.000
1621213927.065,-30.273,-31.738,-31.738,-44.922,0.000
1621213927.069,-14.648,-41.504,-34.668,-59.082,0.000
1621213927.073,-22.461,-49.805,-34.668,-38.086,0.000
1621213927.077,-38.574,-46.875,-45.410,-26.855,0.000
1621213927.081,-31.738,-26.367,-45.410,-34.668,0.000
1621213927.085,-29.297,-32.227,-38.574,-38.574,0.000
1621213927.089,-32.715,-42.969,-44.434,-30.273,0.000
1621213927.093,-44.434,-34.668,-37.109,-30.762,0.000
1621213927.097,-37.598,-32.715,-32.227,-28.809,0.000
1621213927.101,-25.879,-32.715,-36.133,-33.691,0.000
1621213927.104,-40.527,-40.039,-35.645,-39.551,0.000
1621213927.108,-28.320,-41.504,-34.668,-23.926,0.000
1621213927.112,-10.254,-37.109,-40.527,-20.508,0.000
1621213927.116,-32.227,-34.180,-37.109,-29.297,0.000
1621213927.120,-44.922,-43.457,-27.344,-22.461,0.000
1621213927.124,-28.809,-41.992,-37.598,-26.367,0.000
1621213927.128,-35.156,-33.691,-41.992,-35.645,0.000
1621213927.132,-43.945,-42.480,-36.133,-39.551,0.000
1621213927.136,-35.156,-46.387,-41.016,-41.016,0.000
1621213927.140,-47.852,-37.598,-41.016,-33.691,0.000
1621213927.143,-52.246,-29.297,-34.180,-29.297,0.000
1621213927.147,-17.578,-34.668,-40.039,-40.039,0.000
1621213927.151,-0.488,-44.922,-45.410,-34.180,0.000
1621213927.155,-27.832,-44.922,-40.527,-21.973,0.000
1621213927.159,-20.020,-32.715,-35.156,-21.484,0.000
1621213927.163,-20.020,-29.297,-42.969,-31.738,0.000
1621213927.167,-29.297,-51.270,-49.316,-29.297,0.000
1621213927.171,-4.395,-49.316,-40.039,-0.488,0.000
1621213927.175,-8.789,-22.949,-39.551,-6.836,0.000
1621213927.179,-27.344,-16.602,-42.969,-30.762,0.000
1621213927.183,-28.809,-23.438,-50.293,-45.898,0.000
1621213927.186,-37.109,-28.320,-57.129,-37.598,0.000
1621213927.190,-29.297,-20.508,-56.152,-8.301,0.000
1621213927.194,-19.043,-16.602,-56.641,-30.273,0.000
1621213927.198,-27.344,-23.438,-64.941,-51.758,0.000
1621213927.202,-19.531,-22.949,-60.547,-40.039,0.000
1621213927.206,-16.113,-11.719,-55.664,-33.203,0.000
1621213927.210,-36.133,-15.625,-63.477,-49.316,0.000
1621213927.214,-33.203,-30.762,-63.477,-45.898,0.000
1621213927.218,-23.926,-33.203,-61.523,-37.598,0.000
1621213927.222,12.695,-24.414,-59.082,-32.715,0.000
1621213927.226,4.883,-21.973,-58.594,-29.297,0.000
1621213927.229,-47.363,-23.926,-57.129,-27.832,0.000
1621213927.233,-33.691,-23.438,-53.223,-33.203,0.000
1621213927.237,-27.344,-17.578,-60.059,-31.738,0.000
1621213927.241,-31.738,-17.578,-51.758,-21.484,0.000
1621213927.245,-17.578,-14.648,-38.574,-21.973,0.000
1621213927.249,-20.508,-8.789,-44.434,-29.785,0.000
1621213927.253,-17.578,-17.578,-50.293,-33.691,0.000
1621213927.257,-13.184,-24.902,-53.711,-38.086,0.000
1621213927.261,-11.719,-26.855,-52.734,-25.391,0.000
1621213927.265,-21.484,-25.391,-53.223,-11.230,0.000
1621213927.268,-18.555,-21.973,-54.199,-18.555,0.000
1621213927.272,-8.301,-16.602,-47.852,-24.414,0.000
1621213927.276,-19.043,-25.879,-41.992,-29.785,0.000
1621213927.280,-46.875,-35.645,-38.574,-15.137,0.000
1621213927.284,-26.855,-26.855,-36.621,-20.508,0.000
1621213927.288,3.418,-13.184,-35.645,-12.695,0.000
1621213927.292,-7.812,-21.484,-42.969,-7.812,0.000
1621213927.296,-14.648,-37.109,-46.387,-5.859,0.000
1621213927.300,-10.254,-27.832,-42.480,-1.953,0.000
1621213927.304,-17.090,-18.555,-46.387,-17.090,0.000
1621213927.308,-25.879,-19.531,-54.688,-19.043,0.000
1621213927.311,-26.367,-31.738,-45.898,-13.672,0.000
1621213927.315,-29.785,-28.809,-40.527,-32.715,0.000
1621213927.319,-26.367,-28.320,-42.969,-37.598,0.000
1621213927.323,0.000,-38.086,-46.875,-29.297,0.000
1621213927.327,-5.371,-47.363,-46.875,-32.715,0.000
1621213927.331,-52.246,-39.062,-46.875,-30.762,0.000
1621213927.335,-41.992,-24.902,-57.129,-48.340,0.000
1621213927.339,-27.344,-19.531,-40.527,-42.969,0.000
1621213927.343,-30.762,-13.672,-33.691,-14.160,0.000
1621213927.347,-20.020,-17.578,-44.434,-12.207,0.000
1621213927.350,-13.184,-29.785,-48.828,-20.996,0.000
1621213927.354,-13.184,-36.621,-47.363,-12.207,0.000
1621213927.358,-28.320,-23.438,-43.945,-19.531,0.000
1621213927.362,-25.879,-19.531,-51.758,-31.738,0.000
1621213927.366,-20.996,-31.250,-46.387,-37.109,0.000
1621213927.370,-22.949,-40.527,-35.156,-35.645,0.000
1621213927.374,-11.719,-35.645,-41.016,-48.340,0.000
1621213927.378,-20.508,-28.320,-47.852,-35.645,0.000
1621213927.382,-38.086,-40.527,-51.270,-28.809,0.000
1621213927.386,-35.645,-39.062,-46.875,-53.223,0.000
1621213927.390,-37.598,-30.273,-40.527,-45.410,0.000
1621213927.393,-32.715,-17.578,-48.340,-41.016,0.000
1621213927.397,-25.391,-18.555,-44.922,-49.316,0.000
1621213927.401,-28.320,-31.738,-41.504,-46.875,0.000
1621213927.405,-36.133,-26.367,-41.016,-42.969,0.000
1621213927.409,-44.434,-31.738,-50.781,-56.152,0.000
1621213927.413,-19.043,-45.410,-49.316,-15.625,0.000
1621213927.417,-13.184,-32.227,-42.480,-28.809,0.000
1621213927.421,-38.574,-13.184,-50.293,-53.711,0.000
1621213927.425,-42.480,-24.414,-50.293,-36.621,0.000
1621213927.429,-39.062,-34.180,-56.152,-52.734,0.000
1621213927.433,-45.898,-33.691,-67.383,-53.711,0.000
1621213927.436,-47.852,-33.203,-58.105,-59.570,0.000
1621213927.440,-45.898,-22.949,-51.758,-54.199,0.000
1621213927.444,-43.457,-23.926,-71.289,-48.340,0.000
1621213927.448,-52.734,-24.902,-71.289,-56.641,0.000
1621213927.452,-63.965,-20.508,-60.547,-62.012,0.000
1621213927.456,-44.434,-29.297,-63.965,-55.664,0.000
1621213927.460,-29.297,-34.668,-65.430,-39.062,0.000
1621213927.464,-34.180,-33.691,-62.012,-39.551,0.000
1621213927.468,-43.945,-39.551,-63.965,-60.547,0.000
1621213927.472,-28.809,-39.062,-62.500,-64.941,0.000
1621213927.475,-13.672,-34.668,-62.500,-41.016,0.000
1621213927.479,-18.555,-44.434,-54.199,-45.410,0.000
1621213927.483,-18.555,-35.645,-43.945,-58.105,0.000
1621213927.487,-15.625,-18.066,-48.828,-38.574,0.000
1621213927.491,-29.297,-26.367,-55.176,-47.852,0.000
1621213927.495,-20.508,-37.598,-55.664,-38.086,0.000
1621213927.499,-20.996,-43.945,-54.688,-39.062,0.000
1621213927.503,-62.012,-53.223,-57.617,-56.641,0.000
1621213927.507,-46.875,-46.387,-56.641,-42.480,0.000
1621213927.511,-24.902,-33.691,-56.152,-42.969,0.000
1621213927.515,-28.320,-37.109,-55.664,-40.039,0.000
1621213927.518,-15.625,-37.598,-48.828,-34.668,0.000
1621213927.522,-24.414,-23.438,-47.852,-36.133,0.000
1621213927.526,-34.668,-23.926,-46.875,-44.922,0.000
1621213927.530,-29.785,-34.180,-36.621,-52.734,0.000
1621213927.534,-32.227,-42.969,-45.898,-37.598,0.000
1621213927.538,-33.691,-44.922,-54.199,-23.926,0.000
1621213927.542,-27.832,-35.156,-49.316,-40.527,0.000
1621213927.546,-26.855,-33.203,-47.852,-47.852,0.000
1621213927.550,-27.832,-41.016,-41.992,-44.922,0.000
1621213927.554,-28.809,-34.180,-41.992,-45.898,0.000
1621213927.558,-24.902,-22.461,-50.781,-25.879,0.000
1621213927.561,-10.254,-22.461,-54.688,-39.551,0.000
1621213927.565,-15.625,-29.785,-44.922,-67.871,0.000
1621213927.569,-16.602,-36.621,-37.598,-47.852,0.000
1621213927.573,-35.645,-41.016,-37.109,-27.832,0.000
1621213927.577,-60.059,-32.715,-41.016,-45.410,0.000
1621213927.581,-43.457,-33.203,-45.898,-56.641,0.000
1621213927.585,-30.762,-38.574,-41.504,-41.504,0.000
1621213927.589,-37.109,-27.344,-48.828,-40.527,0.000
1621213927.593,-27.832,-31.738,-54.199,-39.062,0.000
1621213927.597,-22.949,-36.621,-42.480,-43.945,0.000
1621213927.600,-20.020,-33.691,-36.133,-54.688,0.000
1621213927.604,-23.438,-32.715,-34.180,-42.969,0.000
1621213927.608,-18.555,-32.715,-29.297,-16.113,0.000
1621213927.612,-2.930,-21.484,-39.062,6.836,0.000
1621213927.616,-4.395,-14.160,-47.852,2.441,0.000
1621213927.620,-30.273,-20.020,-41.016,-31.250,0.000
1621213927.624,-50.293,-29.785,-41.016,-40.039,0.000
1621213927.628,-45.410,-34.180,-25.391,-12.207,0.000
1621213927.632,-34.180,-29.785,-20.508,-17.090,0.000
1621213927.636,-26.855,-31.250,-25.391,-31.738,0.000
1621213927.640,-36.133,-40.527,-33.203,-48.828,0.000
1621213927.643,-46.875,-41.992,-23.926,-52.246,0.000
1621213927.647,-23.438,-33.691,-5.371,-17.090,0.000
1621213927.651,-15.137,-38.086,-23.438,-20.996,0.000
1621213927.655,-24.902,-41.992,-37.109,-38.086,0.000
1621213927.659,-19.043,-32.227,-31.250,-28.320,0.000
1621213927.663,-22.461,-34.668,-26.855,-36.621,0.000
1621213927.667,-41.992,-40.527,-13.672,-48.828,0.000
1621213927.671,-34.180,-27.344,-9.277,-21.484,0.000
1621213927.675,-8.789,-24.902,-14.160,-14.160,0.000
1621213927.679,-12.695,-31.250,-29.785,-30.762,0.000
1621213927.682,-11.719,-32.227,-32.227,-33.691,0.000
1621213927.686,-6.348,-25.879,-15.137,-19.043,0.000
1621213927.690,-25.391,-15.625,-18.555,-11.230,0.000
1621213927.694,-22.461,-22.461,-25.391,-27.832,0.000
1621213927.698,-0.977,-25.879,-31.738,-28.320,0.000
1621213927.702,-9.766,-35.645,-37.598,-27.832,0.000
1621213927.706,-35.645,-39.551,-38.086,-19.043,0.000
1621213927.710,-34.668,-25.391,-22.461,-32.227,0.000
1621213927.714,-29.297,-26.367,-26.367,-53.711,0.000
1621213927.718,-35.645,-41.992,-31.738,-23.438,0.000
1621213927.722,-27.344,-36.133,-29.297,-12.695,0.000
1621213927.725,-21.973,-18.555,-35.156,-30.762,0.000
1621213927.729,-11.230,-22.949,-32.227,-35.156,0.000
1621213927.733,-6.836,-38.574,-30.762,-10.742,0.000
1621213927.737,-9.277,-40.527,-26.367,-7.812,0.000
1621213927.741,-14.160,-29.297,-21.973,-30.273,0.000
1621213927.745,-24.902,-34.668,-21.973,-32.227,0.000
1621213927.749,-27.344,-32.227,-27.832,-36.133,0.000
1621213927.753,-16.602,-17.090,-27.344,-19.043,0.000
1621213927.757,-11.230,-23.926,-21.973,-11.230,0.000
1621213927.761,-14.160,-33.203,-36.133,-27.832,0.000
1621213927.765,-20.996,-25.879,-44.922,-24.414,0.000
1621213927.768,-21.973,-13.184,-39.062,-27.832,0.000
1621213927.772,-7.324,-16.113,-32.227,-25.391,0.000
1621213927.776,-13.184,-26.855,-39.551,-17.090,0.000
1621213927.780,-36.133,-32.227,-43.945,-36.133,0.000
1621213927.784,-50.293,-36.621,-41.992,-49.805,0.000
1621213927.788,-43.945,-39.062,-47.363,-31.738,0.000
1621213927.792,-23.438,-35.156,-47.363,-17.090,0.000
1621213927.796,-27.344,-50.293,-41.016,-22.461,0.000
1621213927.800,-26.855,-50.293,-40.527,-24.902,0.000
1621213927.804,-20.996,-31.738,-37.598,-27.832,0.000
1621213927.807,-25.879,-36.621,-37.109,-21.484,0.000
1621213927.811,-47.363,-35.156,-31.738,-32.715,0.000
1621213927.815,-47.363,-41.504,-34.180,-22.461,0.000
1621213927.819,-20.996,-52.246,-32.715,11.230,0.000
1621213927.823,-28.320,-39.062,-26.367,-21.973,0.000
1621213927.827,-38.086,-31.738,-38.574,-56.152,0.000
1621213927.831,-41.992,-29.297,-45.410,-47.852,0.000
1621213927.835,-44.922,-33.691,-37.109,-68.848,0.000
1621213927.839,-41.016,-38.086,-44.434,-58.105,0.000
1621213927.843,-27.832,-25.391,-57.129,-32.715,0.000
1621213927.847,-22.949,-14.648,-58.594,-49.316,0.000
1621213927.850,-27.832,-16.602,-51.270,-47.363,0.000
1621213927.854,-32.715,-27.832,-52.246,-47.852,0.000
1621213927.858,-41.992,-31.738,-52.734,-38.086,0.000
1621213927.862,-22.949,-31.250,-44.922,-16.113,0.000
1621213927.866,-18.555,-34.180,-43.945,-42.969,0.000
1621213927.870,-30.273,-31.250,-50.781,-39.062,0.000
1621213927.874,-10.742,-29.785,-48.828,-20.508,0.000
1621213927.878,-18.066,-28.320,-35.156,-22.461,0.000
1621213927.882,-23.926,-24.902,-44.434,-39.062,0.000
1621213927.886,-2.441,-20.996,-46.387,-41.016,0.000
1621213927.890,-25.879,-28.809,-43.457,-22.461,0.000
1621213927.893,-35.645,-27.832,-52.246,-20.508,0.000
1621213927.897,-24.414,-20.508,-43.945,-28.320,0.000
1621213927.901,-33.691,-26.367,-44.434,-38.086,0.000
1621213927.905,-29.297,-24.902,-41.016,-17.090,0.000
1621213927.909,-32.715,-34.180,-29.785,-16.113,0.000
1621213927.913,-41.016,-46.387,-37.598,-37.109,0.000
1621213927.917,-34.668,-34.180,-40.527,-32.227,0.000
1621213927.921,-27.832,-24.902,-40.039,-44.922,0.000
1621213927.925,-18.555,-32.715,-49.805,-45.898,0.000
1621213927.929,-20.996,-25.879,-54.688,-48.340,0.000
1621213927.932,-31.250,-28.809,-46.875,-50.781,0.000
1621213927.936,-35.645,-36.133,-41.016,-42.480,0.000
1621213927.940,-23.438,-26.367,-33.691,-39.551,0.000
1621213927.944,-31.738,-33.691,-36.621,-48.340,0.000
1621213927.948,-41.504,-37.598,-47.363,-47.363,0.000
1621213927.952,-34.668,-27.344,-52.246,-38.086,0.000
1621213927.956,-37.109,-30.273,-54.199,-39.062,0.000
1621213927.960,-33.691,-44.922,-46.875,-34.180,0.000
1621213927.964,-36.133,-41.016,-32.715,-35.645,0.000
1621213927.968,-32.715,-34.180,-33.203,-49.316,0.000
1621213927.972,-16.113,-29.297,-36.133,-31.738,0.000
1621213927.975,-20.996,-21.484,-38.574,-25.879,0.000
1621213927.979,-17.090,-26.367,-39.062,-32.715,0.000
1621213927.983,-15.625,-27.344,-22.461,-15.625,0.000
1621213927.987,-31.738,-23.438,-35.156,-19.043,0.000
1621213927.991,-20.508,-23.438,-55.664,-21.973,0.000
1621213927.995,7.812,-19.531,-45.410,-25.391,0.000
1621213927.999,-8.789,-13.672,-30.762,-27.832,0.000
1621213928.003,-40.527,-28.809,-34.180,-33.203,0.000
1621213928.007,-52.734,-45.898,-42.969,-68.359,0.000
1621213928.011,-55.664,-36.621,-35.156,-60.547,0.000
1621213928.014,-55.176,-39.062,-26.367,-35.645,0.000
1621213928.018,-44.434,-39.551,-25.879,-30.762,0.000
1621213928.022,-35.156,-32.715,-23.438,-30.273,0.000
1621213928.026,-39.551,-48.340,-22.949,-37.598,0.000
1621213928.030,-32.715,-49.805,-22.461,-24.902,0.000
1621213928.034,-31.250,-43.945,-27.344,-23.926,0.000
1621213928.038,-20.020,-46.387,-29.785,-20.996,0.000
1621213928.042,-20.508,-49.805,-23.926,-31.738,0.000
1621213928.046,-33.691,-40.527,-21.484,-36.621,0.000
1621213928.050,-24.902,-31.738,-12.207,-19.531,0.000
1621213928.054,-25.391,-28.809,-16.113,-31.738,0.000
1621213928.057,-28.320,-30.273,-28.320,-41.016,0.000
1621213928.061,-40.039,-37.109,-29.297,-38.086,0.000
1621213928.065,-59.570,-34.180,-26.855,-24.902,0.000
1621213928.069,-32.715,-32.227,-28.809,-26.855,0.000
1621213928.073,-27.832,-42.480,-38.574,-47.852,0.000
1621213928.077,-34.668,-41.504,-30.762,-27.832,0.000
1621213928.081,-40.039,-24.902,-22.461,-26.855,0.000
1621213928.085,-30.273,-21.484,-34.668,-51.270,0.000
1621213928.089,-10.742,-36.133,-37.598,-29.785,0.000
1621213928.093,-24.414,-40.527,-29.297,-23.926,0.000
1621213928.097,-35.645,-32.715,-28.320,-44.434,0.000
1621213928.100,-21.484,-36.133,-27.832,-62.012,0.000
1621213928.104,-9.766,-33.203,-36.621,-45.410,0.000
1621213928.108,-13.672,-23.926,-34.668,-25.879,0.000
1621213928.112,-26.367,-34.668,-30.762,-40.039,0.000
1621213928.116,-27.832,-46.387,-31.738,-42.969,0.000
1621213928.120,-36.621,-38.086,-28.809,-37.598,0.000
1621213928.124,-19.531,-34.668,-41.016,-45.898,0.000
1621213928.128,-14.648,-39.062,-42.480,-70.312,0.000
1621213928.132,-45.898,-35.645,-36.133,-59.570,0.000
1621213928.136,-25.391,-25.391,-41.016,-46.875,0.000
1621213928.139,-23.438,-27.344,-39.551,-53.223,0.000
1621213928.143,-32.715,-28.809,-19.531,-41.504,0.000
1621213928.147,-31.250,-33.203,-18.555,-54.199,0.000
1621213928.151,-38.574,-36.133,-29.297,-58.594,0.000
1621213928.155,-24.414,-25.879,-30.273,-46.875,0.000
1621213928.159,-29.785,-17.090,-32.715,-30.762,0.000
1621213928.163,-33.691,-25.879,-38.574,-23.926,0.000
1621213928.167,-33.203,-32.227,-38.086,-39.551,0.000
1621213928.171,-25.879,-20.996,-37.598,-29.297,0.000
1621213928.175,-22.949,-24.414,-37.598,-41.016,0.000
1621213928.179,-34.180,-34.180,-26.367,-54.199,0.000
1621213928.182,-28.809,-32.227,-15.625,-41.992,0.000
1621213928.186,-2.930,-11.230,-15.137,-25.879,0.000
1621213928.190,-5.859,-22.949,-21.973,-22.461,0.000
1621213928.194,-21.484,-42.480,-22.949,-25.879,0.000
1621213928.198,-17.090,-30.273,-18.066,-22.949,0.000
1621213928.202,-23.926,-20.020,-30.273,-18.066,0.000
1621213928.206,-14.160,-19.531,-29.785,-29.785,0.000
1621213928.210,-15.625,-22.461,-24.902,-36.621,0.000
1621213928.214,-18.066,-26.367,-29.297,-31.738,0.000
1621213928.218,-19.531,-31.250,-28.809,-31.250,0.000
1621213928.222,-32.227,-33.691,-27.832,-20.508,0.000
1621213928.225,-20.508,-37.109,-36.133,-23.438,0.000
1621213928.229,-16.113,-27.344,-40.039,-18.066,0.000
1621213928.233,-36.133,-17.578,-36.133,-9.277,0.000
1621213928.237,-25.879,-25.879,-28.809,-16.602,0.000
1621213928.241,-5.859,-27.832,-18.555,-24.902,0.000
1621213928.245,-27.344,-39.062,-24.414,-32.715,0.000
1621213928.249,-23.926,-47.363,-32.715,-22.949,0.000
1621213928.253,5.859,-31.250,-34.180,-2.441,0.000
1621213928.257,-5.371,-28.809,-28.809,-12.695,0.000
1621213928.261,-54.688,-42.969,-26.855,-34.668,0.000
1621213928.264,-57.617,-35.156,-19.531,-25.879,0.000
1621213928.268,-44.922,-27.832,-20.508,-36.621,0.000
1621213928.272,-46.387,-41.992,-26.855,-48.340,0.000
1621213928.276,-34.668,-48.828,-24.902,-29.785,0.000
1621213928.280,-36.133,-45.410,-27.832,-34.180,0.000
1621213928.284,-21.973,-44.434,-30.273,-40.039,0.000
1621213928.288,-24.902,-45.410,-30.762,-37.109,0.000
1621213928.292,-26.367,-45.898,-20.020,-19.531,0.000
1621213928.296,-25.879,-34.668,-24.902,-19.531,0.000
1621213928.300,-41.504,-31.250,-39.551,-30.273,0.000
1621213928.304,-13.184,-39.551,-41.504,-20.020,0.000
1621213928.307,-15.625,-38.086,-38.086,-19.043,0.000
1621213928.311,-39.551,-36.133,-22.461,-12.695,0.000
1621213928.315,-29.297,-31.738,-21.484,-23.926,0.000
1621213928.319,-20.508,-29.297,-33.691,-32.227,0.000
1621213928.323,-30.762,-35.156,-37.598,-23.926,0.000
1621213928.327,-30.273,-37.598,-35.645,-38.574,0.000
1621213928.331,-30.762,-34.180,-31.738,-26.855,0.000
1621213928.335,-18.066,-25.391,-31.250,-4.395,0.000
1621213928.339,-2.930,-24.414,-36.133,-25.391,0.000
1621213928.343,-10.254,-29.297,-28.320,-21.973,0.000
1621213928.347,-23.926,-30.273,-31.738,-14.160,0.000
1621213928.350,-20.508,-23.438,-33.691,-21.484,0.000
1621213928.354,-7.324,-20.508,-26.855,-20.020,0.000
1621213928.358,-9.766,-27.832,-33.203,-19.043,0.000
1621213928.362,-23.438,-33.691,-27.344,-22.461,0.000
1621213928.366,-27.344,-35.645,-19.531,-17.090,0.000
1621213928.370,-32.715,-39.551,-33.203,-10.254,0.000
1621213928.374,-16.113,-39.551,-28.320,-11.230,0.000
1621213928.378,-3.906,-30.273,-21.484,-13.672,0.000
1621213928.382,-8.301,-27.832,-27.832,-8.789,0.000
1621213928.386,-5.371,-35.156,-27.832,-9.277,0.000
1621213928.389,-20.020,-40.039,-24.414,-11.230,0.000
1621213928.393,-24.902,-35.645,-20.996,-20.020,0.000
1621213928.397,-30.762,-29.785,-28.809,-28.809,0.000
1621213928.401,-41.016,-22.461,-39.551,-32.715,0.000
1621213928.405,-26.855,-26.367,-36.621,-35.645,0.000
1621213928.409,-20.020,-39.551,-32.227,-20.020,0.000
1621213928.413,-22.461,-32.227,-34.668,-22.949,0.000
1621213928.417,-36.133,-27.344,-31.250,-27.832,0.000
1621213928.421,-22.461,-30.762,-24.902,-10.742,0.000
1621213928.425,-7.324,-27.832,-28.320,-20.996,0.000
1621213928.429,-20.996,-21.973,-27.832,-34.180,0.000
1621213928.432,-10.254,-27.344,-32.227,-26.367,0.000
1621213928.436,-19.531,-41.992,-33.691,-29.785,0.000
1621213928.440,-31.250,-43.945,-25.391,-35.645,0.000
1621213928.444,-22.949,-40.039,-30.273,-47.363,0.000
1621213928.448,-33.203,-28.320,-26.367,-41.504,0.000
1621213928.452,-35.645,-20.996,-24.902,-15.625,0.000
1621213928.456,-31.250,-26.855,-27.344,-15.625,0.000
1621213928.460,-13.672,-28.320,-31.250,-20.508,0.000
1621213928.464,-20.508,-41.992,-40.039,-34.668,0.000
1621213928.468,-14.160,-37.109,-27.344,-21.973,0.000
1621213928.471,-14.160,-23.438,-23.926,1.953,0.000
1621213928.475,-22.461,-25.391,-32.715,-24.414,0.000
1621213928.479,-30.273,-21.484,-32.715,-35.156,0.000
1621213928.483,-32.715,-22.949,-33.691,-23.438,0.000
1621213928.487,-18.555,-31.738,-31.738,-25.879,0.000
1621213928.491,-24.902,-27.832,-35.645,-24.902,0.000
1621213928.495,-29.297,-24.414,-36.621,-23.926,0.000
1621213928.499,-16.113,-31.738,-42.480,-34.180,0.000
1621213928.503,4.395,-32.227,-37.109,-31.250,0.000
1621213928.507,-4.883,-35.645,-24.414,-17.578,0.000
1621213928.511,-25.391,-38.574,-30.762,-32.227,0.000
1621213928.514,-20.508,-31.250,-40.039,-49.805,0.000
1621213928.518,6.836,-22.949,-32.227,-32.715,0.000
1621213928.522,-0.488,-34.180,-29.297,-23.926,0.000
1621213928.526,-36.133,-42.969,-27.832,-49.316,0.000
1621213928.530,-49.316,-34.668,-23.438,-65.430,0.000
1621213928.534,-51.270,-42.480,-32.227,-55.664,0.000
1621213928.538,-37.598,-40.039,-29.297,-32.227,0.000
1621213928.542,-28.809,-36.621,-24.902,-30.762,0.000
1621213928.546,-40.039,-46.875,-22.461,-35.156,0.000
1621213928.550,-42.969,-41.016,-20.020,-25.391,0.000
1621213928.554,-41.992,-40.527,-27.832,-17.090,0.000
1621213928.557,-34.180,-36.621,-32.715,-17.578,0.000
1621213928.561,-16.602,-36.621,-30.762,-29.297,0.000
1621213928.565,-35.156,-37.109,-27.344,-17.578,0.000
1621213928.569,-50.293,-31.738,-27.832,-27.344,0.000
1621213928.573,-30.273,-34.180,-27.344,-26.855,0.000
1621213928.577,-25.879,-40.527,-31.250,-22.461,0.000
1621213928.581,-15.625,-42.969,-26.855,-42.969,0.000
1621213928.585,1.953,-37.598,-17.090,-19.531,0.000
1621213928.589,-3.906,-33.203,-18.555,-12.695,0.000
1621213928.593,-11.230,-29.297,-22.949,-18.066,0.000
1621213928.596,-16.602,-27.344,-33.691,-20.996,0.000
1621213928.600,-9.277,-26.855,-38.574,-17.090,0.000
1621213928.604,-4.883,-26.855,-27.832,-7.324,0.000
1621213928.608,-1.953,-26.855,-20.508,-14.648,0.000
1621213928.612,-8.301,-37.598,-16.113,-24.902,0.000
1621213928.616,-19.043,-47.363,-17.090,-22.461,0.000
1621213928.620,-14.648,-38.086,-19.531,-35.156,0.000
1621213928.624,-8.789,-34.180,-21.973,-16.602,0.000
1621213928.628,-5.371,-35.645,-22.949,-2.930,0.000
1621213928.632,-14.648,-31.250,-27.344,-5.371,0.000
1621213928.636,-14.160,-27.344,-24.902,-5.859,0.000
1621213928.639,-3.418,-28.809,-14.648,-2.930,0.000
1621213928.643,-7.324,-37.598,-23.438,5.859,0.000
1621213928.647,-2.441,-34.180,-28.320,-4.395,0.000
1621213928.651,4.883,-29.785,-20.508,2.441,0.000
1621213928.655,-12.695,-24.414,-17.090,1.953,0.000
1621213928.659,-19.531,-27.344,-27.344,-13.184,0.000
1621213928.663,-14.648,-40.527,-33.691,-18.066,0.000
1621213928.667,-38.574,-31.250,-37.109,-35.156,0.000
1621213928.671,-32.715,-22.461,-42.969,-36.621,0.000
1621213928.675,-11.719,-30.273,-41.016,-29.297,0.000
1621213928.679,-20.996,-27.344,-40.039,-32.715,0.000
1621213928.682,-27.832,-23.926,-29.297,-31.250,0.000
1621213928.686,-31.738,-29.785,-34.180,-24.414,0.000
1621213928.690,-41.992,-32.227,-50.293,-16.602,0.000
1621213928.694,-26.855,-24.414,-40.527,-8.789,0.000
1621213928.698,-29.785,-25.391,-32.715,-15.625,0.000
1621213928.702,-36.621,-32.715,-29.297,-12.695,0.000
1621213928.706,-26.367,-26.855,-35.645,-9.277,0.000
1621213928.710,-12.207,-26.367,-43.945,1.953,0.000
1621213928.714,-2.441,-19.531,-27.832,0.977,0.000
1621213928.718,-24.414,-18.066,-23.926,-24.902,0.000
1621213928.722,-43.945,-29.297,-29.785,-27.344,0.000
1621213928.725,-37.598,-26.855,-26.367,-22.949,0.000
1621213928.729,-29.785,-32.227,-21.484,-21.973,0.000
1621213928.733,-49.316,-36.133,-24.902,-43.945,0.000
1621213928.737,-45.410,-38.574,-19.043,-26.367,0.000
1621213928.741,-30.273,-35.156,-7.324,5.859,0.000
1621213928.745,-25.879,-41.504,-19.531,-7.324,0.000
1621213928.749,-16.602,-49.316,-25.879,-18.555,0.000
1621213928.753,-17.090,-39.551,-14.648,-13.184,0.000
1621213928.757,-1.953,-27.344,-5.371,-2.930,0.000
1621213928.761,-8.789,-21.484,-6.836,-21.484,0.000
1621213928.764,-29.297,-27.832,-16.602,-35.156,0.000
1621213928.768,-31.738,-30.762,-20.508,-18.555,0.000
1621213928.772,-26.855,-29.785,-20.020,-19.531,0.000
1621213928.776,-16.113,-31.250,-21.484,-18.555,0.000
1621213928.780,-30.273,-40.527,-27.344,-11.230,0.000
1621213928.784,-36.133,-42.969,-36.621,-17.578,0.000
1621213928.788,-30.762,-50.781,-38.086,-21.973,0.000
1621213928.792,-40.527,-45.898,-32.715,-28.809,0.000
1621213928.796,-41.016,-30.273,-33.203,-23.926,0.000
1621213928.800,-36.133,-27.344,-34.180,-19.531,0.000
1621213928.804,-32.715,-29.785,-22.461,-27.832,0.000
1621213928.807,-41.992,-38.086,-22.461,-41.016,0.000
1621213928.811,-31.738,-42.969,-26.367,-25.879,0.000
1621213928.815,-23.926,-44.922,-27.344,-7.812,0.000
1621213928.819,-34.668,-41.992,-31.250,-10.742,0.000
1621213928.823,-31.738,-42.480,-36.621,-12.695,0.000
1621213928.827,-13.184,-31.250,-37.109,-0.977,0.000
1621213928.831,-9.277,-25.879,-28.320,-10.742,0.000
1621213928.835,-26.855,-36.133,-27.832,-25.879,0.000
1621213928.839,1.953,-31.738,-37.598,-1.465,0.000
1621213928.843,4.883,-28.809,-30.273,3.418,0.000
1621213928.846,-30.273,-37.109,-24.414,-39.062,0.000
1621213928.850,-26.367,-38.086,-32.227,-50.293,0.000
1621213928.854,-20.996,-34.180,-30.762,-40.527,0.000
1621213928.858,-34.180,-32.227,-42.480,-53.711,0.000
1621213928.862,-33.203,-31.250,-47.363,-45.898,0.000
1621213928.866,-27.344,-29.297,-33.203,-38.086,0.000
1621213928.870,-32.227,-25.879,-32.715,-26.855,0.000
1621213928.874,-33.691,-25.391,-31.250,-23.438,0.000
1621213928.878,-25.391,-21.484,-31.250,-25.879,0.000
1621213928.882,-15.625,-24.414,-26.855,-21.973,0.000
1621213928.886,-13.672,-28.809,-22.949,-35.156,0.000
1621213928.889,-29.785,-31.738,-33.203,-29.785,0.000
1621213928.893,-44.434,-38.086,-39.062,-20.508,0.000
1621213928.897,-46.875,-38.574,-41.016,-22.949,0.000
1621213928.901,-43.945,-29.297,-41.992,-39.551,0.000
1621213928.905,-35.645,-29.297,-35.156,-43.945,0.000
1621213928.909,-29.785,-40.039,-34.180,-20.020,0.000
1621213928.913,-36.133,-41.504,-41.016,-14.160,0.000
1621213928.917,-20.996,-41.992,-36.133,-39.551,0.000
1621213928.921,-23.438,-29.297,-38.574,-42.480,0.000
1621213928.925,-33.203,-31.250,-37.109,-21.973,0.000
1621213928.929,-34.668,-41.992,-35.645,-29.297,0.000
1621213928.932,-34.668,-29.297,-42.969,-40.039,0.000
1621213928.936,-17.578,-22.461,-39.062,-26.367,0.000
1621213928.940,-15.625,-25.879,-46.387,-33.691,0.000
1621213928.944,-15.137,-27.832,-44.434,-33.203,0.000
1621213928.948,-16.113,-37.598,-36.133,-20.020,0.000
1621213928.952,-26.367,-36.621,-35.645,-22.949,0.000
1621213928.956,-3.906,-22.949,-42.969,-26.367,0.000
1621213928.960,-6.836,-26.855,-52.734,-37.598,0.000
1621213928.964,-29.785,-37.109,-45.410,-36.621,0.000
1621213928.968,-35.156,-35.156,-27.832,-22.461,0.000
1621213928.971,-34.180,-21.484,-31.250,-15.625,0.000
1621213928.975,-27.344,-26.367,-39.551,-19.531,0.000
1621213928.979,-30.273,-27.832,-40.527,-38.086,0.000
1621213928.983,-31.738,-32.715,-44.922,-58.105,0.000
1621213928.987,-13.184,-52.246,-42.969,-17.578,0.000
1621213928.991,12.695,-47.363,-37.598,19.043,0.000
1621213928.995,-2.441,-24.902,-41.016,-18.555,0.000
1621213928.999,-19.043,-17.090,-45.410,-37.109,0.000
1621213929.003,-15.625,-18.066,-48.828,-38.086,0.000
1621213929.007,-16.113,-20.020,-55.176,-41.504,0.000
1621213929.011,-12.695,-13.184,-59.570,-62.012,0.000
1621213929.014,-21.484,-9.277,-72.754,-64.453,0.000
1621213929.018,-39.551,-9.277,-83.008,-59.570,0.000
1621213929.022,-44.434,-13.672,-88.867,-58.105,0.000
1621213929.026,-42.969,-16.113,-98.633,-49.805,0.000
1621213929.030,-28.809,-11.719,-99.609,-59.082,0.000
1621213929.034,-20.020,-16.602,-99.609,-70.801,0.000
1621213929.038,-43.457,-7.324,-107.910,-83.008,0.000
1621213929.042,-32.227,-9.277,-108.398,-81.543,0.000
1621213929.046,-18.555,-19.043,-111.816,-60.059,0.000
1621213929.050,-23.926,-12.695,-112.793,-50.781,0.000
1621213929.054,-23.438,-8.789,-104.004,-74.707,0.000
1621213929.057,-10.742,-6.348,-101.562,-71.289,0.000
1621213929.061,5.859,-6.348,-89.355,-37.598,0.000
1621213929.065,-15.137,-12.695,-86.914,-42.969,0.000
1621213929.069,-14.648,-16.113,-88.379,-41.016,0.000
1621213929.073,-20.020,-20.020,-80.566,-20.020,0.000
1621213929.077,-12.207,-21.973,-77.637,-21.484,0.000
1621213929.081,11.230,-16.113,-77.148,-44.434,0.000
1621213929.085,-12.207,-22.949,-73.730,-35.156,0.000
1621213929.089,-1.953,-29.785,-69.336,-20.020,0.000
1621213929.093,0.977,-25.879,-76.172,-21.484,0.000
1621213929.096,-10.254,-14.648,-63.477,-16.113,0.000
1621213929.100,-2.441,-17.578,-50.293,-18.066,0.000
1621213929.104,1.465,-17.090,-51.758,-14.648,0.000
1621213929.108,6.348,-4.883,-51.758,-12.695,0.000
1621213929.112,13.184,-9.766,-54.199,-18.555,0.000
1621213929.116,8.301,-14.648,-53.223,-24.902,0.000
1621213929.120,-0.977,-19.531,-46.387,2.441,0.000
1621213929.124,7.812,-19.043,-51.758,11.719,0.000
1621213929.128,17.090,-10.742,-51.758,-14.648,0.000
1621213929.132,21.973,-17.090,-43.457,-8.789,0.000
1621213929.136,13.184,-16.113,-46.875,-28.320,0.000
1621213929.139,10.742,-12.207,-42.480,-18.555,0.000
1621213929.143,12.207,-8.789,-41.016,1.953,0.000
1621213929.147,4.395,-11.719,-46.387,-16.602,0.000
1621213929.151,17.578,-21.973,-45.898,-17.578,0.000
1621213929.155,4.883,-18.555,-45.410,-12.695,0.000
1621213929.159,-3.906,-23.438,-49.316,-15.625,0.000
1621213929.163,-15.625,-26.855,-42.480,-20.020,0.000
1621213929.167,-1.465,-15.137,-43.945,-30.762,0.000
1621213929.171,4.883,-15.137,-59.570,-24.414,0.000
1621213929.175,-27.832,-22.949,-52.246,-18.555,0.000
1621213929.178,-28.320,-21.484,-47.363,-29.297,0.000
1621213929.182,-24.902,-10.742,-39.062,-41.992,0.000
1621213929.186,-28.320,-7.324,-31.250,-28.320,0.000
1621213929.190,-20.020,-9.766,-41.016,-23.438,0.000
1621213929.194,-10.742,-24.414,-40.039,-26.367,0.000
1621213929.198,-31.738,-36.133,-34.180,-17.578,0.000
1621213929.202,-24.902,-23.926,-39.062,-16.113,0.000
1621213929.206,-16.602,-16.602,-41.504,-20.508,0.000
1621213929.210,-22.461,-19.531,-41.504,-33.691,0.000
1621213929.214,-23.438,-20.996,-41.504,-45.410,0.000
1621213929.218,-15.625,-21.973,-43.945,-32.227,0.000
1621213929.221,-12.695,-20.020,-46.875,-9.766,0.000
1621213929.225,-15.625,-17.578,-32.715,-21.973,0.000
1621213929.229,-18.555,-17.090,-31.738,-49.316,0.000
1621213929.233,-35.645,-14.648,-42.969,-52.734,0.000
1621213929.237,-9.277,-14.648,-44.922,-45.898,0.000
1621213929.241,-8.301,-20.508,-46.875,-27.832,0.000
1621213929.245,-32.715,-23.926,-45.898,-25.879,0.000
1621213929.249,-34.180,-18.555,-41.016,-28.809,0.000
1621213929.253,-39.551,-23.926,-37.598,-30.762,0.000
1621213929.257,-27.832,-28.809,-41.016,-28.809,0.000
1621213929.261,-13.184,-24.414,-37.598,-32.227,0.000
1621213929.264,-19.531,-23.438,-28.320,-42.969,0.000
1621213929.268,-34.668,-24.414,-40.527,-38.574,0.000
1621213929.272,-31.250,-23.438,-41.504,-43.945,0.000
1621213929.276,-27.832,-24.414,-34.180,-37.109,0.000
1621213929.280,-13.672,-29.785,-32.227,-37.598,0.000
1621213929.284,-12.207,-26.855,-25.391,-26.367,0.000
1621213929.288,-20.996,-17.578,-27.344,-13.672,0.000
1621213929.292,-24.902,-27.344,-40.527,-23.438,0.000
1621213929.296,-29.297,-28.809,-48.828,-25.391,0.000
1621213929.300,-34.668,-32.715,-43.457,-33.691,0.000
1621213929.303,-33.203,-35.645,-34.180,-24.902,0.000
1621213929.307,-30.273,-37.109,-34.668,-22.949,0.000
1621213929.311,-43.945,-35.645,-37.598,-30.762,0.000
1621213929.315,-33.203,-36.621,-32.715,-23.438,0.000
1621213929.319,-26.855,-36.133,-29.785,-17.090,0.000
1621213929.323,-23.438,-31.738,-32.715,-11.719,0.000
1621213929.327,-14.648,-36.133,-39.551,-12.695,0.000
1621213929.331,-21.484,-31.250,-37.598,-35.645,0.000
1621213929.335,-31.250,-34.180,-32.715,-42.480,0.000
1621213929.339,-21.484,-34.180,-33.691,-21.973,0.000
1621213929.343,-6.348,-29.297,-31.738,-12.207,0.000
1621213929.346,-5.371,-31.738,-40.527,-27.344,0.000
1621213929.350,-20.508,-30.273,-43.945,-39.062,0.000
1621213929.354,-34.180,-35.156,-33.203,-29.297,0.000
1621213929.358,-29.297,-37.598,-35.156,-30.273,0.000
1621213929.362,-19.531,-27.832,-39.062,-29.297,0.000
1621213929.366,-22.461,-25.879,-39.062,-23.926,0.000
1621213929.370,-24.902,-25.879,-35.645,-34.180,0.000
1621213929.374,-20.508,-22.949,-40.039,-30.762,0.000
1621213929.378,-21.484,-26.367,-39.062,-25.879,0.000
1621213929.382,-22.949,-27.832,-34.668,-31.250,0.000
1621213929.386,8.301,-22.461,-40.039,-15.625,0.000
1621213929.389,1.465,-28.320,-39.062,-16.113,0.000
1621213929.393,-37.109,-41.504,-25.879,-50.781,0.000
1621213929.397,-28.809,-35.156,-18.066,-45.898,0.000
1621213929.401,-36.621,-28.809,-20.996,-34.668,0.000
1621213929.405,-68.359,-35.645,-22.949,-36.133,0.000
1621213929.409,-70.312,-43.457,-21.484,-49.805,0.000
1621213929.413,-37.109,-44.922,-17.578,-38.086,0.000
1621213929.417,-23.926,-42.480,-10.254,-26.855,0.000
1621213929.421,-39.062,-37.598,-6.836,-31.250,0.000
1621213929.425,-43.945,-36.133,-7.324,-6.836,0.000
1621213929.428,-34.668,-31.250,-7.324,-10.742,0.000
1621213929.432,-33.691,-26.367,-19.043,-22.461,0.000
1621213929.436,-6.348,-32.227,-25.391,-10.742,0.000
1621213929.440,-14.648,-34.180,-15.137,-5.859,0.000
1621213929.444,-26.367,-30.762,-16.113,-12.207,0.000
1621213929.448,-32.715,-37.109,-17.578,-20.508,0.000
1621213929.452,-53.711,-36.621,-20.996,-23.438,0.000
1621213929.456,-19.043,-37.598,-28.809,-22.949,0.000
1621213929.460,-17.578,-37.109,-27.344,-21.973,0.000
1621213929.464,-30.273,-30.273,-33.691,-24.414,0.000
1621213929.468,-11.230,-26.855,-44.922,-2.441,0.000
1621213929.471,-21.484,-37.109,-36.621,-2.930,0.000
1621213929.475,-36.133,-39.062,-26.367,-23.438,0.000
1621213929.479,-35.645,-31.738,-24.414,-16.113,0.000
1621213929.483,-40.527,-29.785,-22.949,-13.184,0.000
1621213929.487,-41.504,-33.691,-26.367,-17.090,0.000
1621213929.491,-17.090,-26.367,-22.949,-12.695,0.000
1621213929.495,-23.926,-34.668,-18.066,-7.812,0.000
1621213929.499,-32.227,-54.199,-32.227,-22.461,0.000
1621213929.503,-8.789,-48.828,-41.016,-21.484,0.000
1621213929.507,-10.254,-44.922,-34.668,-14.160,0.000
1621213929.510,-23.926,-37.109,-31.738,-9.766,0.000
1621213929.514,-28.809,-32.715,-25.879,-11.230,0.000
1621213929.518,-37.598,-36.621,-36.621,-38.086,0.000
1621213929.522,-45.410,-30.762,-35.645,-21.484,0.000
1621213929.526,-38.086,-25.391,-21.973,-15.137,0.000
1621213929.530,-27.344,-31.250,-28.320,-45.898,0.000
1621213929.534,-27.344,-35.645,-33.691,-37.109,0.000
1621213929.538,-41.992,-35.156,-32.715,-43.457,0.000
1621213929.542,-55.176,-29.785,-25.391,-50.781,0.000
1621213929.546,-53.711,-25.391,-28.809,-44.922,0.000
1621213929.550,-63.477,-36.621,-40.039,-57.129,0.000
1621213929.553,-62.988,-23.926,-25.879,-68.848,0.000
1621213929.557,-69.824,-12.207,-22.949,-82.031,0.000
1621213929.561,-96.191,-25.391,-29.297,-100.586,0.000
1621213929.565,-113.281,-20.508,-32.227,-115.234,0.000
1621213929.569,-153.320,-5.859,-48.828,-142.090,0.000
1621213929.573,-154.785,0.488,-36.133,-148.438,0.000
1621213929.577,-158.203,20.020,-32.715,-169.434,0.000
1621213929.581,-208.496,32.227,-45.898,-196.289,0.000
1621213929.585,-227.539,28.809,-44.922,-215.820,0.000
1621213929.589,-228.027,35.156,-44.434,-247.559,0.000
1621213929.593,-237.305,25.391,-42.969,-237.305,0.000
1621213929.596,-235.352,21.484,-34.668,-227.051,0.000
1621213929.600,-219.238,38.086,-28.809,-214.355,0.000
1621213929.604,-200.195,20.508,-28.809,-195.801,0.000
1621213929.608,-183.105,4.395,-34.668,-201.172,0.000
1621213929.612,-169.922,20.508,-33.691,-174.316,0.000
1621213929.616,-166.016,2.441,-37.109,-150.879,0.000
1621213929.620,-131.836,-16.113,-31.250,-123.535,0.000
1621213929.624,-114.258,-15.137,-4.883,-98.145,0.000
1621213929.628,-115.234,-14.648,-9.277,-83.008,0.000
1621213929.632,-83.008,-20.020,-18.066,-63.477,0.000
1621213929.635,-61.035,-38.574,-13.184,-42.480,0.000
1621213929.639,-45.898,-43.945,-18.555,-34.668,0.000
1621213929.643,-29.785,-42.969,-22.949,-34.668,0.000
1621213929.647,-12.695,-49.805,-29.297,-20.020,0.000
1621213929.651,-12.207,-52.246,-42.969,-21.973,0.000
1621213929.655,5.371,-33.691,-36.133,-13.184,0.000
1621213929.659,20.020,-42.969,-34.668,-8.301,0.000
1621213929.663,24.414,-58.105,-34.180,17.578,0.000
1621213929.667,13.672,-50.293,-18.066,38.574,0.000
1621213929.671,8.789,-50.781,-17.090,25.879,0.000
1621213929.675,21.973,-56.152,-18.555,26.367,0.000
1621213929.678,31.738,-61.523,-32.715,30.762,0.000
1621213929.682,26.367,-62.500,-38.086,26.855,0.000
1621213929.686,25.879,-62.988,-25.879,27.344,0.000
1621213929.690,51.758,-59.570,-23.926,36.621,0.000
1621213929.694,42.480,-59.082,-22.949,33.203,0.000
1621213929.698,29.785,-53.223,-28.320,33.203,0.000
1621213929.702,38.086,-58.594,-28.809,29.297,0.000
1621213929.706,40.527,-59.082,-31.738,23.438,0.000
1621213929.710,36.621,-46.875,-35.156,35.156,0.000
1621213929.714,38.086,-44.922,-34.668,35.156,0.000
1621213929.718,39.062,-58.105,-35.645,19.043,0.000
1621213929.721,36.621,-60.547,-31.738,23.438,0.000
1621213929.725,35.645,-48.340,-34.180,35.645,0.000
1621213929.729,26.855,-49.316,-31.250,28.320,0.000
1621213929.733,32.715,-46.875,-32.715,32.227,0.000
1621213929.737,22.949,-33.203,-33.691,36.133,0.000
1621213929.741,9.277,-30.273,-36.133,25.879,0.000
1621213929.745,22.461,-39.551,-41.016,17.578,0.000
1621213929.749,27.344,-45.410,-32.715,34.180,0.000
1621213929.753,25.879,-41.016,-23.926,34.180,0.000
1621213929.757,32.227,-41.016,-29.297,21.973,0.000
1621213929.760,37.109,-44.922,-33.203,14.160,0.000
1621213929.764,44.922,-45.898,-34.180,24.414,0.000
1621213929.768,38.574,-39.551,-27.832,40.039,0.000
1621213929.772,27.344,-34.180,-27.344,36.621,0.000
1621213929.776,31.250,-28.320,-30.273,37.109,0.000
1621213929.780,18.066,-28.320,-33.691,37.598,0.000
1621213929.784,0.488,-32.715,-34.668,26.855,0.000
1621213929.788,0.977,-38.574,-25.391,36.621,0.000
1621213929.792,1.953,-39.062,-32.227,33.203,0.000
1621213929.796,0.000,-44.434,-36.133,10.742,0.000
1621213929.800,11.719,-45.898,-35.156,6.836,0.000
1621213929.803,19.531,-43.457,-37.109,-1.465,0.000
1621213929.807,15.625,-38.086,-39.062,0.000,0.000
1621213929.811,15.625,-21.973,-45.898,2.441,0.000
1621213929.815,10.742,-27.832,-39.062,-7.812,0.000
1621213929.819,6.836,-39.062,-32.227,-14.160,0.000
1621213929.823,14.648,-28.809,-30.273,9.277,0.000
1621213929.827,17.090,-25.879,-30.762,9.766,0.000
1621213929.831,-2.441,-35.156,-35.645,-19.043,0.000
1621213929.835,1.465,-32.715,-36.133,-2.441,0.000
1621213929.839,13.184,-25.391,-35.645,21.484,0.000
1621213929.843,4.395,-23.926,-40.039,5.371,0.000
1621213929.846,5.371,-28.809,-36.133,-19.043,0.000
1621213929.850,-1.465,-29.785,-41.504,-27.344,0.000
1621213929.854,-7.324,-28.320,-51.270,-20.996,0.000
1621213929.858,0.000,-24.902,-41.504,-11.230,0.000
1621213929.862,-5.859,-33.691,-41.504,-21.484,0.000
1621213929.866,-20.996,-37.109,-41.992,-17.090,0.000
1621213929.870,-7.324,-20.508,-39.551,-12.695,0.000
1621213929.874,5.371,-21.973,-38.574,-18.066,0.000
1621213929.878,4.883,-25.391,-37.598,-8.789,0.000
1621213929.882,-6.348,-22.461,-34.180,-14.160,0.000
1621213929.885,-24.414,-23.438,-37.598,-11.230,0.000
1621213929.889,-17.090,-22.461,-47.852,-20.508,0.000
1621213929.893,5.371,-25.391,-52.734,-46.387,0.000
1621213929.897,9.766,-41.504,-50.293,-25.391,0.000
1621213929.901,-8.301,-38.574,-55.664,-22.949,0.000
1621213929.905,-18.066,-22.949,-43.945,-28.320,0.000
1621213929.909,-15.137,-32.227,-35.156,-26.855,0.000
1621213929.913,-21.484,-36.133,-39.551,-49.316,0.000
1621213929.917,-27.832,-34.180,-41.504,-46.387,0.000
1621213929.921,-31.250,-41.016,-46.875,-23.926,0.000
1621213929.925,-29.785,-34.180,-44.434,-14.160,0.000
1621213929.928,-13.184,-33.203,-43.945,-23.926,0.000
1621213929.932,-9.766,-42.480,-41.992,-39.062,0.000
1621213929.936,-11.719,-29.297,-46.875,-28.809,0.000
1621213929.940,-29.297,-18.555,-50.293,-28.320,0.000
1621213929.944,-28.320,-25.391,-41.992,-31.250,0.000
1621213929.948,-9.766,-26.855,-35.645,-30.273,0.000
1621213929.952,-16.113,-25.391,-37.598,-29.785,0.000
1621213929.956,-27.832,-25.879,-41.992,-15.137,0.000
1621213929.960,-16.113,-25.879,-36.621,-34.180,0.000
1621213929.964,-11.719,-35.156,-35.645,-39.551,0.000
1621213929.967,-18.066,-37.598,-41.016,-41.504,0.000
1621213929.971,-11.719,-23.926,-40.039,-44.922,0.000
1621213929.975,-11.719,-17.090,-43.457,-38.086,0.000
1621213929.979,-17.090,-23.438,-46.387,-47.852,0.000
1621213929.983,-14.160,-31.738,-45.410,-34.668,0.000
1621213929.987,-8.301,-30.273,-41.992,-35.156,0.000
1621213929.991,-18.066,-25.391,-36.621,-35.156,0.000
1621213929.995,-23.438,-22.461,-36.621,-26.367,0.000
1621213929.999,-10.254,-31.250,-41.504,-30.273,0.000
1621213930.003,0.488,-32.715,-35.645,-42.480,0.000
1621213930.007,-2.441,-23.926,-34.668,-38.574,0.000
1621213930.010,-4.395,-33.691,-37.598,-19.531,0.000
1621213930.014,-21.484,-38.574,-37.109,-25.879,0.000
1621213930.018,-19.531,-39.551,-42.969,-44.922,0.000
1621213930.022,-2.441,-40.039,-41.992,-42.969,0.000
1621213930.026,-9.766,-29.297,-43.457,-31.250,0.000
1621213930.030,-9.277,-23.926,-41.992,-34.180,0.000
1621213930.034,-16.113,-35.645,-38.574,-17.090,0.000
1621213930.038,-23.926,-37.598,-36.621,-8.301,0.000
1621213930.042,-20.508,-27.832,-45.410,-25.879,0.000
1621213930.046,-23.438,-27.344,-55.176,-45.410,0.000
1621213930.050,-21.973,-31.738,-48.828,-41.504,0.000
1621213930.053,-21.484,-43.457,-40.527,-30.762,0.000
1621213930.057,-20.020,-39.551,-41.016,-30.273,0.000
1621213930.061,-17.090,-34.180,-42.969,-28.320,0.000
1621213930.065,-10.742,-40.527,-41.992,-21.973,0.000
1621213930.069,4.883,-31.250,-45.410,-16.602,0.000
1621213930.073,-22.461,-24.902,-42.969,-24.902,0.000
1621213930.077,-45.898,-29.785,-37.598,-37.598,0.000
1621213930.081,-43.945,-26.367,-27.832,-45.898,0.000
1621213930.085,-31.738,-25.391,-23.438,-36.133,0.000
1621213930.089,-24.902,-30.762,-26.367,-25.391,0.000
1621213930.092,-20.508,-41.016,-35.156,-17.090,0.000
1621213930.096,-15.625,-44.922,-34.180,-20.020,0.000
1621213930.100,-19.531,-39.551,-33.691,-38.574,0.000
1621213930.104,-15.137,-37.109,-27.344,-19.043,0.000
1621213930.108,-20.020,-32.227,-20.508,-20.020,0.000
1621213930.112,-12.695,-26.855,-32.715,-30.762,0.000
1621213930.116,-18.555,-34.668,-31.738,-23.438,0.000
1621213930.120,-16.113,-45.898,-21.484,-14.160,0.000
1621213930.124,-0.977,-34.180,-25.879,-20.508,0.000
1621213930.128,-13.672,-29.297,-33.691,-32.227,0.000
1621213930.132,-22.949,-43.945,-36.133,-1.953,0.000
1621213930.135,-21.973,-41.504,-30.273,-5.859,0.000
1621213930.139,-20.020,-38.574,-30.762,-28.809,0.000
1621213930.143,-18.066,-36.621,-38.574,-17.578,0.000
1621213930.147,-21.484,-32.227,-34.180,-22.461,0.000
1621213930.151,-40.527,-33.203,-29.297,-23.438,0.000
1621213930.155,-41.504,-32.715,-31.250,-28.320,0.000
1621213930.159,-17.090,-34.180,-36.133,-37.109,0.000
1621213930.163,-18.555,-36.621,-30.762,-20.996,0.000
1621213930.167,-24.414,-35.156,-25.391,-15.625,0.000
1621213930.171,-13.184,-29.297,-37.598,-25.391,0.000
1621213930.175,-25.391,-23.926,-39.551,-11.230,0.000
1621213930.178,-29.297,-19.531,-32.715,-23.438,0.000
1621213930.182,-13.672,-20.996,-34.180,-36.621,0.000
1621213930.186,-21.484,-25.391,-31.250,-18.555,0.000
1621213930.190,-26.367,-24.902,-25.879,-20.508,0.000
1621213930.194,-13.184,-24.902,-27.344,-24.414,0.000
1621213930.198,-7.324,-32.227,-35.645,-19.043,0.000
1621213930.202,-17.090,-32.715,-34.668,-17.090,0.000
1621213930.206,-19.531,-26.855,-33.203,-9.277,0.000
1621213930.210,-9.766,-17.090,-40.039,-10.742,0.000
1621213930.214,-29.297,-12.695,-35.156,-11.230,0.000
1621213930.217,-27.344,-20.508,-24.902,-24.414,0.000
1621213930.221,-17.578,-27.832,-26.855,-31.738,0.000
1621213930.225,-17.090,-22.949,-33.203,-26.367,0.000
1621213930.229,-10.254,-21.484,-39.062,-31.738,0.000
1621213930.233,-26.855,-39.062,-40.039,-31.738,0.000
1621213930.237,-27.344,-35.645,-38.086,-16.602,0.000
1621213930.241,-35.156,-22.461,-46.875,-16.113,0.000
1621213930.245,-42.480,-21.973,-48.828,-30.762,0.000
1621213930.249,-34.668,-25.879,-38.086,-28.320,0.000
1621213930.253,-28.809,-30.762,-37.109,-14.648,0.000
1621213930.257,-33.203,-31.738,-35.645,-11.230,0.000
1621213930.260,-34.668,-28.320,-40.527,-27.344,0.000
1621213930.264,-25.879,-26.855,-38.086,-28.320,0.000
1621213930.268,-29.297,-34.180,-40.039,-36.621,0.000
1621213930.272,-28.320,-36.621,-41.016,-40.527,0.000
1621213930.276,-20.996,-29.297,-27.832,-25.391,0.000
1621213930.280,-14.648,-21.484,-36.621,-13.672,0.000
1621213930.284,-17.090,-22.461,-42.969,-14.160,0.000
1621213930.288,-28.809,-20.996,-39.062,-27.832,0.000
1621213930.292,-24.902,-27.832,-41.992,-38.086,0.000
1621213930.296,-17.578,-39.062,-46.387,-32.227,0.000
1621213930.300,-10.254,-29.785,-46.387,-42.480,0.000
1621213930.303,-20.996,-12.207,-36.621,-33.691,0.000
1621213930.307,-19.531,-9.766,-28.320,-26.855,0.000
1621213930.311,0.488,-13.184,-32.715,-37.598,0.000
1621213930.315,-28.320,-20.020,-28.320,-42.480,0.000
1621213930.319,-42.969,-21.973,-26.855,-41.992,0.000
1621213930.323,-30.273,-25.391,-31.738,-28.320,0.000
1621213930.327,-44.434,-40.039,-25.879,-37.109,0.000
1621213930.331,-51.758,-37.109,-33.691,-41.992,0.000
1621213930.335,-50.293,-28.320,-30.273,-31.250,0.000
1621213930.339,-48.828,-30.762,-11.230,-24.414,0.000
1621213930.342,-35.645,-42.969,-15.137,-12.207,0.000
1621213930.346,-26.367,-46.875,-21.484,-28.809,0.000
1621213930.350,-35.156,-35.156,-30.273,-48.340,0.000
1621213930.354,-29.785,-35.645,-34.180,-32.715,0.000
1621213930.358,-13.184,-25.879,-26.367,-18.066,0.000
1621213930.362,-26.855,-30.762,-30.273,-27.344,0.000
1621213930.366,-33.203,-34.668,-42.480,-46.875,0.000
1621213930.370,-38.086,-24.902,-45.410,-40.527,0.000
1621213930.374,-30.273,-42.969,-46.387,-31.738,0.000
1621213930.378,-35.645,-45.410,-42.480,-28.320,0.000
1621213930.382,-48.828,-37.109,-31.738,-45.410,0.000
1621213930.385,-33.203,-35.156,-31.738,-32.715,0.000
1621213930.389,-48.828,-37.598,-34.180,-9.277,0.000
1621213930.393,-52.734,-41.016,-41.992,-22.949,0.000
1621213930.397,-20.508,-38.086,-41.016,-41.992,0.000
1621213930.401,-27.832,-40.039,-39.062,-42.969,0.000
1621213930.405,-42.480,-41.016,-38.086,-28.809,0.000
1621213930.409,-24.414,-36.621,-37.598,-12.207,0.000
1621213930.413,-15.625,-32.715,-41.992,-16.113,0.000
1621213930.417,-11.230,-25.879,-30.273,-18.555,0.000
1621213930.421,-20.996,-33.691,-27.344,-22.949,0.000
1621213930.424,-8.301,-33.203,-32.227,-20.020,0.000
1621213930.428,-6.348,-27.344,-39.551,-20.020,0.000
1621213930.432,-24.902,-28.809,-39.551,-34.668,0.000
1621213930.436,-22.461,-25.879,-28.809,-33.691,0.000
1621213930.440,-24.902,-28.320,-30.273,-31.738,0.000
1621213930.444,-24.902,-30.762,-35.645,-41.504,0.000
1621213930.448,-45.410,-29.785,-36.133,-54.688,0.000
1621213930.452,-46.875,-30.762,-38.574,-50.293,0.000
1621213930.456,-29.297,-30.273,-39.551,-34.180,0.000
1621213930.460,-21.973,-31.738,-34.180,-23.926,0.000
1621213930.464,-34.180,-35.156,-31.250,-31.738,0.000
1621213930.467,-40.039,-34.180,-30.273,-35.645,0.000
1621213930.471,-37.598,-37.109,-31.738,-30.762,0.000
1621213930.475,-46.875,-44.434,-35.645,-44.434,0.000
1621213930.479,-31.250,-29.785,-43.457,-47.363,0.000
1621213930.483,-15.625,-19.043,-41.992,-43.945,0.000
1621213930.487,-17.578,-19.043,-37.109,-20.508,0.000
1621213930.491,-8.301,-28.320,-26.855,-12.207,0.000
1621213930.495,-24.902,-38.574,-28.809,-30.273,0.000
1621213930.499,-54.688,-34.180,-41.504,-35.645,0.000
1621213930.503,-38.086,-32.715,-41.016,-31.738,0.000
1621213930.507,-25.391,-27.344,-39.062,-35.645,0.000
1621213930.510,-32.715,-23.926,-41.992,-36.133,0.000
1621213930.514,-32.715,-34.180,-46.387,-38.086,0.000
1621213930.518,-26.367,-36.133,-42.480,-60.059,0.000
1621213930.522,-31.738,-28.809,-43.457,-40.527,0.000
1621213930.526,-35.645,-34.180,-41.016,-36.133,0.000
1621213930.530,-34.668,-33.203,-36.133,-34.668,0.000
1621213930.534,-34.180,-30.762,-36.133,-40.039,0.000
1621213930.538,-38.574,-29.297,-41.016,-49.316,0.000
1621213930.542,-25.879,-26.367,-41.992,-34.668,0.000
1621213930.546,-18.555,-38.574,-36.133,-37.109,0.000
1621213930.549,-32.227,-40.527,-39.062,-33.691,0.000
1621213930.553,-39.062,-40.039,-48.828,-29.297,0.000
1621213930.557,-44.434,-33.203,-49.805,-41.504,0.000
1621213930.561,-41.504,-21.973,-50.781,-43.945,0.000
1621213930.565,-39.062,-24.414,-42.969,-40.527,0.000
1621213930.569,-27.832,-23.926,-30.273,-38.086,0.000
1621213930.573,-22.461,-28.320,-34.668,-34.668,0.000
1621213930.577,-33.203,-36.133,-41.992,-35.156,0.000
1621213930.581,-26.855,-30.762,-39.062,-27.832,0.000
1621213930.585,-22.461,-39.062,-30.762,-28.809,0.000
1621213930.589,-14.160,-39.551,-31.250,-23.926,0.000
1621213930.592,-16.602,-28.320,-37.109,-15.137,0.000
1621213930.596,-15.137,-25.879,-44.922,-26.367,0.000
1621213930.600,-0.488,-22.949,-40.527,-26.855,0.000
1621213930.604,-13.672,-21.973,-31.250,-13.184,0.000
1621213930.608,-3.418,-27.344,-22.949,-0.488,0.000
1621213930.612,16.113,-30.762,-20.508,-7.812,0.000
1621213930.616,2.930,-31.250,-34.180,-22.461,0.000
1621213930.620,-18.555,-25.391,-36.133,-22.461,0.000
1621213930.624,-31.738,-32.227,-36.621,-18.555,0.000
1621213930.628,-32.715,-37.109,-38.574,-14.160,0.000
1621213930.632,-24.902,-25.391,-35.645,-20.508,0.000
1621213930.635,-24.902,-23.438,-39.551,-17.090,0.000
1621213930.639,-6.836,-20.508,-40.039,-29.785,0.000
1621213930.643,2.930,-14.648,-40.527,-25.879,0.000
1621213930.647,-29.297,-27.832,-44.922,-19.043,0.000
1621213930.651,-25.391,-38.574,-46.387,-15.625,0.000
1621213930.655,-12.695,-26.367,-37.109,-10.742,0.000
1621213930.659,-5.371,-16.602,-36.621,-7.324,0.000
1621213930.663,1.465,-22.949,-35.645,4.395,0.000
1621213930.667,-13.184,-23.438,-33.203,-1.465,0.000
1621213930.671,-19.531,-19.043,-36.133,-7.812,0.000
1621213930.674,-25.879,-23.438,-34.180,-10.254,0.000
1621213930.678,-29.785,-29.785,-39.062,-29.785,0.000
1621213930.682,-17.090,-30.762,-34.668,-33.203,0.000
1621213930.686,-16.113,-25.879,-28.320,-18.066,0.000
1621213930.690,-17.578,-35.645,-38.574,-28.320,0.000
1621213930.694,-21.973,-33.691,-35.156,-37.598,0.000
1621213930.698,-14.160,-30.762,-29.785,-33.203,0.000
1621213930.702,-17.090,-37.598,-34.668,-26.367,0.000
1621213930.706,-26.367,-32.715,-31.250,-8.789,0.000
1621213930.710,-21.484,-21.973,-27.832,-4.395,0.000
1621213930.714,-25.391,-26.855,-34.668,1.465,0.000
1621213930.717,-28.809,-27.832,-35.645,0.000,0.000
1621213930.721,-19.531,-30.273,-26.367,-26.367,0.000
1621213930.725,-23.438,-49.805,-27.832,-35.645,0.000
1621213930.729,-28.320,-43.457,-35.156,-29.297,0.000
1621213930.733,-26.855,-25.391,-34.180,-15.137,0.000
1621213930.737,-28.809,-34.180,-38.086,-15.625,0.000
1621213930.741,-30.273,-38.086,-40.527,-12.207,0.000
1621213930.745,-33.691,-31.738,-37.109,-22.949,0.000
1621213930.749,-26.367,-29.785,-42.969,-31.250,0.000
1621213930.753,-7.812,-24.902,-38.574,-11.719,0.000
1621213930.757,-5.371,-27.832,-32.715,-26.855,0.000
1621213930.760,-20.508,-37.109,-39.551,-28.809,0.000
1621213930.764,-17.578,-27.832,-40.039,-20.996,0.000
1621213930.768,-14.648,-23.926,-35.645,-30.762,0.000
1621213930.772,-24.414,-28.320,-39.551,-25.879,0.000
1621213930.776,-10.254,-32.715,-46.387,-25.391,0.000
1621213930.780,-17.578,-27.344,-41.504,-30.273,0.000
1621213930.784,-21.484,-24.414,-40.527,-51.270,0.000
1621213930.788,-20.996,-26.367,-41.992,-45.410,0.000
1621213930.792,-38.086,-41.504,-35.645,-30.273,0.000
1621213930.796,-26.855,-47.852,-33.691,-33.691,0.000
1621213930.799,-17.578,-30.273,-30.762,-28.320,0.000
1621213930.803,-34.180,-28.320,-34.180,-26.855,0.000
1621213930.807,-36.621,-35.156,-45.410,-20.020,0.000
1621213930.811,-21.973,-40.527,-42.480,-20.020,0.000
1621213930.815,-26.855,-37.109,-37.598,-22.461,0.000
1621213930.819,-26.855,-38.574,-37.109,-14.160,0.000
1621213930.823,-11.230,-39.551,-37.109,-20.996,0.000
1621213930.827,-12.695,-33.203,-40.039,-26.367,0.000
1621213930.831,-34.668,-26.367,-46.387,-15.137,0.000
1621213930.835,-32.227,-20.508,-48.340,-22.461,0.000
1621213930.839,-20.996,-26.367,-37.598,-40.039,0.000
1621213930.842,-17.090,-35.645,-42.969,-39.551,0.000
1621213930.846,-13.672,-28.809,-52.734,-25.391,0.000
1621213930.850,-25.879,-29.785,-37.109,-25.391,0.000
1621213930.854,-35.645,-29.297,-30.273,-16.602,0.000
1621213930.858,-36.621,-21.973,-42.969,-15.137,0.000
1621213930.862,-24.902,-28.320,-42.480,-28.320,0.000
1621213930.866,-7.324,-38.086,-35.645,-23.438,0.000
1621213930.870,-7.812,-41.504,-37.109,-20.020,0.000
1621213930.874,-14.648,-24.414,-49.316,-32.227,0.000
1621213930.878,-34.668,-17.578,-53.223,-28.809,0.000
1621213930.881,-31.250,-28.320,-39.551,-24.902,0.000
1621213930.885,-11.230,-29.785,-41.992,-28.320,0.000
1621213930.889,-17.090,-30.273,-42.480,-26.855,0.000
1621213930.893,-20.996,-38.574,-39.551,-23.926,0.000
1621213930.897,-20.020,-33.203,-41.504,-16.602,0.000
1621213930.901,-22.461,-30.762,-38.086,-24.414,0.000
1621213930.905,-25.879,-41.504,-41.504,-52.734,0.000
1621213930.909,-35.156,-37.598,-36.621,-30.762,0.000
1621213930.913,-39.062,-30.273,-25.879,-5.859,0.000
1621213930.917,-44.434,-35.156,-27.344,-38.086,0.000
1621213930.921,-42.969,-49.805,-24.414,-26.855,0.000
1621213930.924,-45.410,-50.781,-18.066,-6.836,0.000
1621213930.928,-31.738,-40.527,-23.926,-27.344,0.000
1621213930.932,-25.391,-36.133,-30.762,-45.410,0.000
1621213930.936,-26.367,-42.969,-39.551,-39.551,0.000
1621213930.940,-20.020,-50.293,-34.180,-15.625,0.000
1621213930.944,-39.062,-46.387,-23.438,-30.762,0.000
1621213930.948,-41.504,-43.457,-31.250,-58.105,0.000
1621213930.952,-38.574,-39.062,-41.016,-51.270,0.000
1621213930.956,-34.668,-32.715,-44.922,-50.293,0.000
1621213930.960,-30.762,-31.250,-46.387,-44.922,0.000
1621213930.964,-33.691,-28.809,-41.016,-31.250,0.000
1621213930.967,-39.062,-33.203,-40.039,-32.227,0.000
1621213930.971,-22.461,-49.805,-42.480,-31.250,0.000
1621213930.975,-21.973,-48.828,-36.621,-43.945,0.000
1621213930.979,-27.344,-36.133,-39.551,-41.992,0.000
1621213930.983,-15.625,-35.645,-36.133,-14.160,0.000
1621213930.987,-35.645,-42.969,-32.227,-15.625,0.000
1621213930.991,-30.273,-38.574,-34.668,-31.250,0.000
1621213930.995,-23.438,-32.227,-27.832,-33.691,0.000
1621213930.999,-30.273,-34.180,-30.762,-36.621,0.000
1621213931.003,-27.832,-43.945,-41.016,-25.391,0.000
1621213931.006,-16.602,-43.457,-42.969,-37.598,0.000
1621213931.010,-30.273,-39.062,-37.598,-41.016,0.000
1621213931.014,-52.734,-41.992,-38.574,-31.250,0.000
1621213931.018,-25.879,-40.527,-45.410,-35.645,0.000
1621213931.022,-27.832,-46.387,-46.387,-22.949,0.000
1621213931.026,-36.133,-42.969,-38.574,-6.348,0.000
1621213931.030,-32.715,-33.691,-30.762,-27.832,0.000
1621213931.034,-25.879,-34.180,-41.504,-48.828,0.000
1621213931.038,-29.297,-39.062,-36.621,-20.996,0.000
1621213931.042,-47.852,-42.480,-27.344,-14.648,0.000
1621213931.046,-47.852,-39.551,-34.180,-27.832,0.000
1621213931.049,-43.457,-30.762,-30.762,-23.926,0.000
1621213931.053,-37.598,-31.738,-28.809,-6.836,0.000
1621213931.057,-31.250,-37.598,-29.785,-7.812,0.000
1621213931.061,-27.344,-36.133,-31.250,-12.207,0.000
1621213931.065,-20.020,-34.180,-43.945,-9.277,0.000
1621213931.069,-27.344,-36.133,-48.828,-23.926,0.000
1621213931.073,-34.180,-48.340,-39.551,-5.859,0.000
1621213931.077,-28.809,-40.039,-32.715,-2.441,0.000
1621213931.081,-31.250,-20.020,-29.297,-14.160,0.000
1621213931.085,-22.949,-20.996,-32.715,-9.277,0.000
1621213931.089,-10.254,-24.414,-33.203,-18.555,0.000
1621213931.092,-8.301,-27.832,-30.273,-11.230,0.000
1621213931.096,-34.180,-29.297,-40.039,-13.672,0.000
1621213931.100,-35.156,-25.879,-35.156,-20.020,0.000
1621213931.104,-39.062,-32.227,-29.297,-25.879,0.000
1621213931.108,-55.176,-47.852,-37.109,-33.203,0.000
1621213931.112,-22.949,-61.035,-32.715,4.883,0.000
1621213931.116,6.836,-40.527,-31.738,13.184,0.000
1621213931.120,-11.719,-18.555,-49.316,-31.250,0.000
1621213931.124,-30.762,-23.926,-51.758,-55.664,0.000
1621213931.128,-36.133,-29.297,-48.340,-65.918,0.000
1621213931.131,-36.133,-24.414,-58.105,-74.707,0.000
1621213931.135,-46.387,-20.508,-69.824,-62.988,0.000
1621213931.139,-29.297,-13.184,-78.613,-48.340,0.000
1621213931.143,-19.043,-6.348,-76.660,-45.410,0.000
1621213931.147,-31.250,-8.789,-82.520,-48.828,0.000
1621213931.151,-23.926,-5.859,-99.609,-41.992,0.000
1621213931.155,-20.508,-8.789,-96.191,-39.062,0.000
1621213931.159,-14.648,-13.184,-92.285,-42.969,0.000
1621213931.163,-13.672,-6.348,-98.145,-45.898,0.000
1621213931.167,4.395,2.441,-101.074,-41.504,0.000
1621213931.171,14.160,5.371,-94.727,-39.062,0.000
1621213931.174,-2.441,-2.930,-94.727,-41.992,0.000
1621213931.178,6.836,-2.930,-97.656,-17.578,0.000
1621213931.182,-6.348,-4.395,-97.656,-31.250,0.000
1621213931.186,-17.090,-21.973,-104.980,-41.016,0.000
1621213931.190,2.441,-13.184,-93.750,-18.555,0.000
1621213931.194,12.695,3.906,-82.031,-18.066,0.000
1621213931.198,6.348,-6.348,-81.543,-27.832,0.000
1621213931.202,2.930,-15.625,-84.961,-14.648,0.000
1621213931.206,-0.977,-20.020,-85.938,-12.207,0.000
1621213931.210,-3.906,-22.949,-87.891,-27.832,0.000
1621213931.214,0.977,-24.902,-84.961,-14.648,0.000
1621213931.217,3.906,-27.832,-77.637,-11.719,0.000
1621213931.221,-0.977,-20.996,-71.289,-15.137,0.000
1621213931.225,2.441,-18.066,-72.754,-18.066,0.000
1621213931.229,-8.301,-18.066,-69.336,-13.672,0.000
1621213931.233,0.488,-10.742,-62.988,-11.230,0.000
1621213931.237,12.695,-10.254,-69.336,-22.949,0.000
1621213931.241,-8.789,-14.160,-72.754,-23.926,0.000
1621213931.245,-5.371,-20.996,-62.500,-9.766,0.000
1621213931.249,-0.488,-20.508,-51.270,0.977,0.000
1621213931.253,0.977,-17.578,-51.758,11.230,0.000
1621213931.256,7.324,-19.531,-49.316,25.391,0.000
1621213931.260,1.953,-21.484,-56.641,27.832,0.000
1621213931.264,-21.484,-28.809,-50.781,25.879,0.000
1621213931.268,-43.457,-32.715,-40.039,8.301,0.000
1621213931.272,-52.246,-23.926,-44.434,10.254,0.000
1621213931.276,-51.758,-25.391,-41.016,3.418,0.000
1621213931.280,-42.480,-26.367,-43.457,-6.348,0.000
1621213931.284,-40.039,-13.672,-45.898,2.930,0.000
1621213931.288,-31.738,-15.137,-41.992,3.418,0.000
1621213931.292,-25.391,-19.531,-39.551,-17.090,0.000
1621213931.296,-23.438,-22.461,-52.246,-20.508,0.000
1621213931.299,-27.344,-29.297,-42.480,-9.766,0.000
1621213931.303,-31.250,-34.668,-41.016,-32.715,0.000
1621213931.307,-20.508,-38.574,-46.387,-17.090,0.000
1621213931.311,-17.578,-31.250,-43.457,-11.719,0.000
1621213931.315,-14.648,-35.156,-47.852,-27.832,0.000
1621213931.319,-3.906,-35.156,-39.062,-20.020,0.000
1621213931.323,-19.531,-30.762,-34.668,-19.531,0.000
1621213931.327,-31.250,-29.785,-42.969,-30.273,0.000
