timestamps,TP9,AF7,AF8,TP10,Right AUX
1621557100.800,49.805,36.133,32.715,36.621,32.715
1621557100.804,41.016,35.645,33.691,32.227,4.883
1621557100.808,37.598,39.551,29.785,28.809,26.367
1621557100.812,36.133,35.156,28.320,33.203,-11.230
1621557100.816,37.598,30.273,34.668,41.016,48.828
1621557100.820,35.156,33.203,37.109,35.645,56.641
1621557100.824,26.855,28.320,34.180,33.203,-24.902
1621557100.827,27.344,28.809,34.668,39.551,-40.527
1621557100.831,26.367,31.250,36.133,39.062,29.785
1621557100.835,20.508,32.227,34.668,35.156,34.668
1621557100.839,20.996,30.273,35.156,36.621,69.336
1621557100.843,24.902,27.832,34.668,37.598,95.703
1621557100.843,24.902,27.832,34.668,37.598,95.703
1621557100.873,22.461,29.297,30.273,26.367,25.391
1621557100.877,24.902,33.691,28.320,15.137,-0.977
1621557100.881,23.438,34.180,27.832,7.324,0.000
1621557100.885,19.531,33.691,26.367,3.418,69.336
1621557100.889,22.461,30.273,24.414,1.465,27.344
1621557100.893,23.926,25.879,26.855,2.930,4.395
1621557100.897,17.578,28.320,27.832,5.371,17.578
1621557100.900,9.766,26.367,30.273,6.836,13.672
1621557100.904,5.371,23.926,32.227,14.648,11.719
1621557100.908,6.348,23.926,32.715,20.508,2.930
1621557100.912,9.766,22.461,35.156,21.973,3.418
1621557100.916,11.719,20.508,36.133,23.438,-5.859
1621557100.911,20.996,24.414,38.574,29.297,15.137
1621557100.915,26.367,28.320,37.109,30.762,31.250
1621557100.919,24.414,22.949,36.621,29.785,-32.715
1621557100.923,30.273,21.484,38.086,33.691,-14.160
1621557100.927,38.086,25.391,35.156,39.551,8.789
1621557100.931,44.922,31.250,35.645,45.898,17.578
1621557100.935,46.875,32.227,35.645,44.434,60.059
1621557100.938,49.805,35.156,34.668,39.062,40.039
1621557100.942,51.270,37.598,34.180,38.574,41.504
1621557100.946,44.922,35.156,37.109,39.062,56.152
1621557100.950,39.062,36.133,39.062,35.156,60.059
1621557100.954,37.598,38.086,40.039,27.832,46.387
1621557100.949,34.180,36.133,40.527,23.438,-33.691
1621557100.953,37.109,37.598,42.480,26.855,-40.527
1621557100.957,42.480,39.062,46.387,26.855,-17.090
1621557100.961,35.156,36.133,44.434,19.531,15.137
1621557100.965,29.785,37.598,40.039,11.719,51.758
1621557100.969,29.297,39.062,38.086,5.859,25.391
1621557100.973,24.414,35.156,41.016,3.418,48.828
1621557100.976,21.973,32.715,43.457,0.977,46.387
1621557100.980,26.855,31.738,37.598,4.395,23.438
1621557100.984,36.133,30.762,34.668,17.578,-4.395
1621557100.988,30.273,28.809,39.551,24.902,-20.020
1621557100.992,14.160,26.367,42.969,21.973,51.758
1621557100.986,11.230,29.297,42.969,23.438,96.680
1621557100.990,6.348,31.250,36.621,28.809,50.293
1621557100.994,1.953,33.691,31.250,27.832,-40.039
1621557100.998,0.488,32.715,34.668,25.391,-26.855
1621557101.002,0.977,30.273,37.598,25.391,23.926
1621557101.006,8.301,28.809,39.062,28.809,-3.906
1621557101.010,20.020,28.320,40.039,33.691,39.551
1621557101.013,29.297,25.391,36.133,32.715,128.418
1621557101.017,35.645,25.391,33.691,25.879,76.172
1621557101.021,41.504,34.180,36.133,30.762,-22.949
1621557101.025,42.969,35.156,33.691,39.551,-13.672
1621557101.029,41.016,34.180,26.855,36.133,99.609
1621557101.042,34.180,35.645,26.855,30.273,70.801
1621557101.046,33.203,35.645,30.273,27.832,0.488
1621557101.050,35.645,35.156,29.785,24.902,29.297
1621557101.054,33.691,35.645,31.250,24.414,65.430
1621557101.058,28.809,33.691,34.180,24.414,27.832
1621557101.062,23.438,27.832,35.645,14.648,-1.953
1621557101.066,21.484,27.832,34.668,6.348,43.457
1621557101.069,23.438,33.691,31.738,6.836,73.242
1621557101.073,25.391,36.621,34.668,9.277,64.941
1621557101.077,16.113,35.645,34.180,9.766,32.227
1621557101.081,16.602,35.156,34.180,13.184,-0.977
1621557101.085,32.227,34.668,37.109,24.414,-8.301
1621557101.081,31.738,33.203,34.668,33.691,-9.766
1621557101.085,25.879,32.715,37.598,39.551,-16.602
1621557101.089,22.949,29.297,40.039,46.875,-16.602
1621557101.093,20.996,26.855,42.480,52.734,-25.879
1621557101.097,25.391,28.320,43.457,54.199,-3.418
1621557101.101,22.461,27.832,40.527,43.945,9.277
1621557101.105,20.996,24.414,41.504,41.992,8.301
1621557101.108,21.484,24.902,41.504,43.945,24.414
1621557101.112,18.066,28.320,38.086,35.645,54.199
1621557101.116,14.160,31.250,34.668,25.391,62.988
1621557101.120,12.207,29.785,34.180,25.879,56.152
1621557101.124,13.672,26.367,36.133,29.297,8.789
1621557101.136,22.949,26.367,35.156,34.180,-10.254
1621557101.140,29.297,29.785,32.227,35.645,49.316
1621557101.144,27.832,32.227,28.320,29.297,24.902
1621557101.148,32.227,31.250,27.832,27.344,-5.371
1621557101.152,38.574,28.809,29.297,24.902,54.199
1621557101.156,40.039,29.297,28.809,21.484,75.684
1621557101.160,39.062,35.645,31.250,15.625,91.309
1621557101.163,41.016,30.762,28.809,11.230,59.570
1621557101.167,41.016,25.879,27.832,16.113,14.648
1621557101.171,45.898,37.109,28.809,20.996,24.902
1621557101.175,47.363,42.969,32.227,17.090,35.645
1621557101.179,41.016,40.039,33.203,10.742,5.371
1621557101.174,37.598,39.062,32.227,13.184,-20.996
1621557101.178,37.109,35.156,34.180,15.625,58.105
1621557101.182,38.086,29.785,35.645,17.578,52.246
1621557101.186,37.109,29.297,38.086,23.926,32.227
1621557101.190,30.273,33.691,40.527,28.320,46.387
1621557101.194,32.715,38.574,41.504,39.551,37.598
1621557101.198,37.598,37.109,42.480,49.316,41.016
1621557101.201,26.855,32.715,36.621,42.969,72.266
1621557101.205,25.879,33.691,35.156,42.480,19.531
1621557101.209,30.762,33.203,36.133,48.340,-18.555
1621557101.213,29.297,31.250,35.645,48.828,22.949
1621557101.217,23.926,33.203,37.598,40.527,79.590
1621557101.249,19.043,33.203,37.598,36.133,69.824
1621557101.253,21.484,29.297,35.645,37.109,53.711
1621557101.257,24.414,26.367,34.668,28.809,10.254
1621557101.261,22.949,27.344,37.109,20.996,8.789
1621557101.265,23.926,28.809,36.621,21.484,20.020
1621557101.269,23.438,28.809,33.691,23.438,4.883
1621557101.273,20.508,32.715,36.133,23.926,40.039
1621557101.276,34.180,34.668,32.227,29.785,34.180
1621557101.280,50.781,32.227,33.691,41.016,-33.203
1621557101.284,30.273,29.785,39.551,30.762,5.371
1621557101.288,14.160,28.320,39.062,14.648,55.664
1621557101.292,24.902,22.949,43.457,24.414,48.828
1621557101.269,33.203,14.160,46.875,38.086,21.973
1621557101.273,41.992,11.230,49.805,43.457,-11.230
1621557101.277,47.363,12.695,50.293,49.316,-13.184
1621557101.281,50.293,11.230,50.781,59.082,-55.176
1621557101.285,58.105,6.836,54.688,68.359,-35.156
1621557101.289,65.430,6.348,57.129,71.289,-13.184
1621557101.293,67.871,3.418,56.641,77.148,-51.270
1621557101.296,72.754,-1.953,60.059,90.332,25.391
1621557101.300,71.777,2.930,62.012,90.820,49.805
1621557101.304,64.453,7.324,58.594,83.496,-12.695
1621557101.308,60.547,7.812,57.617,84.961,-0.977
1621557101.312,56.641,10.742,57.617,89.355,20.020
1621557101.324,50.781,11.719,56.641,85.449,38.086
1621557101.328,42.969,8.301,58.594,78.613,32.715
1621557101.332,37.598,13.672,62.988,74.707,-35.645
1621557101.336,41.016,13.184,58.105,74.219,-56.152
1621557101.340,40.039,10.742,55.664,71.289,-25.391
1621557101.344,37.598,15.625,57.129,63.477,1.953
1621557101.348,37.109,15.625,53.223,61.523,34.180
1621557101.351,37.598,18.555,48.340,60.059,8.301
1621557101.355,42.480,21.973,48.340,56.152,-15.625
1621557101.359,41.016,25.391,45.898,43.945,18.066
1621557101.363,36.621,21.484,41.504,30.273,-4.395
1621557101.367,38.086,21.484,43.457,30.762,15.137
1621557101.362,38.574,24.902,40.527,35.156,44.434
1621557101.366,38.574,22.461,39.062,35.645,62.012
1621557101.370,41.504,20.996,39.551,33.691,48.340
1621557101.374,46.387,24.414,38.086,35.156,76.172
1621557101.378,53.711,29.297,37.109,39.062,41.504
1621557101.382,51.758,30.273,35.156,40.527,-36.621
1621557101.386,49.316,25.879,37.598,42.480,37.598
1621557101.389,51.758,26.367,40.527,46.875,74.707
1621557101.393,54.199,28.320,40.039,50.781,35.156
1621557101.397,50.293,28.809,37.598,50.293,16.602
1621557101.401,45.410,29.785,37.598,46.387,-11.719
1621557101.405,46.387,29.297,39.062,50.293,7.324
1621557101.417,43.945,32.715,38.086,48.828,61.035
1621557101.421,37.598,30.762,37.109,43.457,49.805
1621557101.425,26.855,26.367,37.598,37.598,10.742
1621557101.429,20.508,26.855,38.086,34.180,37.598
1621557101.433,17.578,25.879,37.598,36.621,34.668
1621557101.437,19.531,27.832,36.621,39.062,24.414
1621557101.441,30.273,30.273,38.574,42.480,1.953
1621557101.444,30.762,28.320,38.574,38.086,-13.184
1621557101.448,27.832,25.879,35.156,34.668,62.500
1621557101.452,32.715,26.855,34.668,40.039,25.391
1621557101.456,30.762,26.855,36.133,31.738,-52.246
1621557101.460,23.926,27.344,34.668,23.438,9.277
1621557101.457,27.832,27.344,31.250,29.785,36.133
1621557101.461,32.227,25.879,30.762,32.715,18.555
1621557101.465,34.668,26.367,32.715,38.086,10.254
1621557101.469,34.668,27.832,35.645,38.574,-30.273
1621557101.473,33.691,27.832,36.133,34.668,-34.180
1621557101.477,39.551,29.297,33.691,38.574,20.996
1621557101.481,46.875,32.227,35.156,42.969,76.172
1621557101.484,42.969,32.227,35.645,39.062,69.336
1621557101.488,35.156,33.691,28.320,25.391,123.047
1621557101.492,36.133,32.715,25.879,22.461,86.426
1621557101.496,37.598,28.809,31.250,29.785,29.297
1621557101.500,31.738,28.320,30.762,25.879,52.734
1621557101.511,24.414,28.809,32.227,24.414,69.336
1621557101.515,20.508,29.297,36.133,25.879,97.656
1621557101.519,22.461,34.180,35.645,26.367,98.633
1621557101.523,21.484,36.133,30.273,27.832,78.613
1621557101.527,19.531,30.273,31.250,28.320,46.387
1621557101.531,18.555,29.297,32.227,21.484,2.441
1621557101.535,21.973,29.297,32.227,19.043,29.785
1621557101.538,28.320,28.809,36.621,25.391,48.828
1621557101.542,35.156,34.668,40.527,26.367,74.219
1621557101.546,32.227,31.738,42.480,27.344,40.527
1621557101.550,45.898,22.949,45.898,49.805,-13.184
1621557101.554,66.895,31.738,38.574,68.359,-14.648
1621557101.548,41.992,45.898,25.391,33.691,-43.945
1621557101.552,11.230,45.410,25.879,0.488,61.035
1621557101.556,14.160,41.504,26.855,1.953,46.387
1621557101.560,12.695,45.898,22.461,-1.953,0.977
1621557101.564,-7.812,49.316,20.020,-24.902,42.969
1621557101.568,-24.414,46.875,17.090,-41.992,43.945
1621557101.572,-36.133,50.293,16.602,-52.246,18.555
1621557101.575,-43.945,44.922,13.672,-62.500,26.855
1621557101.579,-45.898,33.691,9.277,-65.430,-10.742
1621557101.583,-49.316,39.551,12.207,-63.477,-23.926
1621557101.587,-58.105,41.992,14.648,-72.266,21.973
1621557101.591,-54.199,41.504,16.113,-70.801,27.344
1621557101.605,-56.641,45.898,13.184,-74.219,91.309
1621557101.609,-62.500,42.480,9.766,-79.590,91.309
1621557101.613,-53.711,45.410,8.301,-70.312,67.383
1621557101.617,-41.992,48.340,11.719,-60.059,77.637
1621557101.621,-38.574,43.945,16.113,-47.363,63.965
1621557101.625,-32.715,46.387,16.602,-39.551,80.078
1621557101.629,-20.508,48.340,19.043,-33.203,53.223
1621557101.632,-9.277,48.828,24.414,-20.508,23.926
1621557101.636,3.418,50.781,24.902,-10.254,77.637
1621557101.640,15.625,50.781,20.996,-2.930,56.641
1621557101.644,21.484,48.828,20.508,-0.977,-11.230
1621557101.648,21.484,50.293,20.508,-2.441,50.293
1621557101.643,20.996,52.734,22.461,4.883,38.086
1621557101.647,25.879,46.387,20.020,8.301,-21.973
1621557101.651,27.344,41.504,14.160,4.395,15.625
1621557101.655,27.832,41.992,17.578,6.836,48.828
1621557101.659,33.691,43.457,21.973,21.973,16.602
1621557101.663,39.551,44.922,22.461,27.344,26.367
1621557101.667,42.480,44.434,19.043,20.508,39.551
1621557101.670,43.945,47.852,19.043,23.438,41.504
1621557101.674,42.480,48.828,25.879,26.855,47.852
1621557101.678,39.551,43.457,26.855,28.320,10.254
1621557101.682,39.062,39.062,23.926,30.762,34.180
1621557101.686,36.133,35.645,26.367,30.762,125.488
1621557101.699,33.203,36.133,31.738,32.227,41.504
1621557101.703,32.227,35.645,32.227,37.598,-43.945
1621557101.707,25.879,32.227,29.785,35.645,-11.230
1621557101.711,17.090,38.086,27.832,22.949,-33.691
1621557101.715,16.113,40.527,28.809,22.461,-15.137
1621557101.719,18.555,32.227,26.855,28.809,29.297
1621557101.723,22.461,31.250,25.391,28.320,48.340
1621557101.726,25.879,33.203,26.855,32.715,70.801
1621557101.730,29.785,34.180,29.785,38.574,41.016
1621557101.734,40.039,37.598,34.180,42.969,17.578
1621557101.738,48.340,38.574,33.203,44.922,59.570
1621557101.742,49.805,39.551,33.691,41.016,119.141
1621557101.736,48.340,42.480,33.203,37.598,38.574
1621557101.740,50.293,41.016,33.203,39.062,10.742
1621557101.744,54.688,38.574,32.715,43.457,25.879
1621557101.748,55.176,41.504,31.738,42.480,-2.441
1621557101.752,49.316,41.016,29.297,34.180,-6.348
1621557101.756,49.316,41.504,29.297,35.645,32.715
1621557101.760,47.363,43.945,32.227,41.016,46.387
1621557101.763,41.992,41.504,34.668,40.039,9.277
1621557101.767,36.621,33.691,33.691,31.250,65.918
1621557101.771,31.250,32.227,34.180,26.367,17.578
1621557101.775,30.273,35.156,40.527,35.156,-11.230
1621557101.779,26.855,32.227,41.016,31.738,45.898
1621557101.792,25.879,31.250,38.574,23.438,40.039
1621557101.796,28.320,34.668,41.016,24.902,-1.953
1621557101.800,29.297,35.156,44.434,31.738,-34.180
1621557101.804,30.273,33.691,43.945,32.715,-25.879
1621557101.808,27.344,33.203,38.086,23.438,45.898
1621557101.812,20.508,32.715,36.133,15.137,24.902
1621557101.816,16.602,27.344,42.969,21.973,6.348
1621557101.819,13.184,21.484,45.898,26.855,36.621
1621557101.823,7.324,23.438,41.504,22.949,47.852
1621557101.827,7.812,25.391,42.480,21.484,27.832
1621557101.831,15.137,22.461,44.434,25.879,3.418
1621557101.835,17.090,23.926,40.527,32.715,48.340
1621557101.830,18.066,26.367,41.016,29.297,21.973
1621557101.834,24.902,27.344,39.062,26.855,1.465
1621557101.838,32.227,31.738,34.668,27.344,-4.395
1621557101.842,37.109,37.598,36.133,29.785,-12.695
1621557101.846,38.086,35.645,38.086,32.715,-29.297
1621557101.850,37.598,34.668,36.133,29.297,-6.348
1621557101.854,36.133,37.109,35.156,26.367,77.148
1621557101.857,38.086,38.086,35.645,28.809,58.594
1621557101.861,43.945,39.062,37.109,32.227,37.598
1621557101.865,41.016,39.551,37.598,27.344,28.320
1621557101.869,36.621,40.527,36.621,23.926,-1.953
1621557101.873,36.133,42.480,33.691,23.926,26.855
1621557101.887,38.574,37.598,33.691,25.879,31.250
1621557101.891,32.715,30.762,30.273,22.949,32.227
1621557101.895,26.367,29.297,28.809,20.020,37.109
1621557101.899,22.461,33.691,30.762,17.578,24.902
1621557101.903,29.297,35.156,27.832,19.043,57.617
1621557101.907,34.668,35.156,25.879,20.996,47.363
1621557101.911,24.902,35.645,25.391,20.508,23.438
1621557101.914,24.414,33.691,24.902,19.043,11.230
1621557101.918,32.227,29.297,24.414,17.090,12.695
1621557101.922,40.527,32.715,23.926,22.461,-5.859
1621557101.926,42.969,35.156,24.414,24.414,33.203
1621557101.930,32.715,34.180,23.926,23.926,47.363
1621557101.925,24.902,33.203,23.438,29.785,-13.672
1621557101.929,21.973,27.344,26.367,35.645,6.836
1621557101.933,14.160,23.438,32.715,35.156,49.316
1621557101.937,5.859,26.855,33.203,29.297,50.781
1621557101.941,3.418,24.414,34.668,21.484,53.223
1621557101.945,8.789,21.973,37.109,20.508,24.414
1621557101.949,15.137,25.879,37.109,21.484,-6.836
1621557101.952,19.531,27.832,39.062,19.043,28.320
1621557101.956,19.043,25.879,39.551,16.113,-2.930
1621557101.960,22.949,29.785,37.598,22.461,-28.320
1621557101.964,31.738,35.156,35.156,30.762,63.965
1621557101.968,32.715,31.738,31.250,30.273,71.777
1621557101.980,35.645,33.203,28.809,27.832,58.594
1621557101.984,36.621,35.156,23.926,22.461,72.754
1621557101.988,38.086,28.809,22.461,23.926,55.176
1621557101.992,36.621,25.391,25.879,28.320,5.859
1621557101.996,29.297,31.738,30.273,27.832,1.465
1621557102.000,27.344,34.180,34.180,36.133,1.465
1621557102.004,27.832,31.250,36.621,40.527,-58.105
1621557102.007,29.297,28.809,41.016,39.062,-2.441
1621557102.011,25.879,27.832,42.969,35.156,83.008
1621557102.015,25.879,26.855,40.527,34.180,41.992
1621557102.019,27.832,26.367,39.551,33.203,34.668
1621557102.023,30.273,28.320,38.574,29.297,70.312
1621557102.017,26.855,27.344,35.645,21.973,62.500
1621557102.021,21.484,27.344,30.273,17.090,35.645
1621557102.025,27.344,29.297,30.273,17.090,-11.230
1621557102.029,31.738,31.738,31.738,17.090,-3.906
1621557102.033,29.297,30.273,29.785,14.648,6.836
1621557102.037,32.715,28.320,28.809,14.160,-3.418
1621557102.041,32.227,31.250,26.855,17.578,31.738
1621557102.044,27.344,33.691,27.832,22.949,50.781
1621557102.048,20.508,33.691,29.785,23.926,25.391
1621557102.052,11.230,30.273,29.785,20.508,19.531
1621557102.056,9.277,29.297,29.297,19.531,54.199
1621557102.060,16.602,30.273,30.273,25.391,76.172
1621557102.074,23.438,28.320,31.738,32.715,21.484
1621557102.078,20.996,27.344,28.320,26.855,8.789
1621557102.082,24.414,31.738,26.367,28.809,17.090
1621557102.086,29.297,33.203,27.832,38.574,24.902
1621557102.090,28.809,31.738,25.879,39.062,59.570
1621557102.094,24.414,29.785,23.438,29.785,65.430
1621557102.098,23.926,29.297,28.809,25.879,84.473
1621557102.101,27.832,30.273,35.156,33.691,62.012
1621557102.105,29.297,31.250,34.668,34.180,26.855
1621557102.109,25.391,37.109,32.227,28.809,-14.160
1621557102.113,24.902,40.527,32.227,26.855,16.113
1621557102.117,33.691,42.480,32.227,24.902,30.762
1621557102.111,39.551,41.992,30.273,27.344,-47.852
1621557102.115,40.527,41.016,29.297,22.949,-23.438
1621557102.119,35.645,40.527,26.367,10.254,28.320
1621557102.123,35.645,35.645,22.949,16.113,-19.531
1621557102.127,35.156,35.645,22.461,21.973,10.254
1621557102.131,38.086,35.645,24.902,22.949,9.277
1621557102.135,36.133,33.203,27.344,17.578,0.488
1621557102.138,33.203,30.762,29.785,15.137,40.527
1621557102.142,36.621,30.762,26.855,22.949,39.551
1621557102.146,34.180,32.227,22.461,20.996,36.133
1621557102.150,33.203,32.715,23.926,19.043,17.578
1621557102.154,30.762,30.273,25.391,21.484,13.184
1621557102.167,28.320,25.879,26.367,23.438,38.086
1621557102.171,27.832,29.785,28.809,24.902,52.734
1621557102.175,23.926,32.227,30.762,25.879,52.246
1621557102.179,25.391,30.762,32.715,28.320,32.715
1621557102.183,26.855,32.227,28.809,28.809,-6.836
1621557102.187,31.250,30.273,29.785,32.227,2.441
1621557102.191,35.156,30.762,32.715,34.180,8.301
1621557102.194,31.738,31.250,30.762,28.320,2.930
1621557102.198,29.297,28.809,26.855,22.461,41.992
1621557102.202,25.391,28.809,24.414,22.949,42.969
1621557102.206,22.949,29.785,25.391,20.020,62.988
1621557102.210,24.902,27.344,25.879,14.648,67.383
1621557102.206,28.809,28.320,28.320,20.508,-8.301
1621557102.210,28.320,28.809,25.391,24.414,-20.020
1621557102.214,24.414,29.297,23.926,23.438,-17.578
1621557102.218,20.996,30.273,26.367,23.926,-5.371
1621557102.222,27.832,29.785,25.391,21.973,4.395
1621557102.226,34.180,30.273,25.879,25.879,-9.277
1621557102.230,31.250,31.250,25.879,22.949,64.453
1621557102.233,27.344,33.691,22.949,17.090,52.734
1621557102.237,30.762,38.086,26.367,22.461,29.785
1621557102.241,31.738,35.156,28.809,25.391,66.406
1621557102.245,24.414,27.832,25.879,21.484,-7.324
1621557102.249,21.973,28.809,28.809,20.996,2.930
1621557102.261,21.973,32.715,32.715,20.996,57.617
1621557102.265,23.438,34.668,33.203,22.461,91.797
1621557102.269,25.879,35.645,35.156,25.879,95.703
1621557102.273,27.344,36.133,36.621,27.344,66.895
1621557102.277,27.344,34.668,37.598,26.367,9.277
1621557102.281,27.832,31.738,37.598,28.809,-8.301
1621557102.285,33.203,31.250,34.668,34.668,33.691
1621557102.288,33.691,29.297,31.738,33.203,36.621
1621557102.292,25.391,28.320,28.809,27.344,10.742
1621557102.296,24.902,30.273,29.297,28.809,58.105
1621557102.300,27.832,32.715,32.227,35.156,87.402
1621557102.304,26.367,29.297,28.320,34.668,79.102
1621557102.299,22.949,24.902,24.414,27.344,65.918
1621557102.303,19.043,27.832,28.320,20.508,43.457
1621557102.307,23.926,32.227,30.273,14.648,30.762
1621557102.311,23.926,28.809,24.902,14.160,10.742
1621557102.315,20.508,27.832,27.344,17.090,8.301
1621557102.319,23.926,27.832,27.832,15.137,5.859
1621557102.323,23.926,29.785,22.461,10.742,9.277
1621557102.326,26.367,32.227,19.043,14.648,6.836
1621557102.330,30.762,32.227,21.484,19.531,60.059
1621557102.334,23.926,32.715,22.949,17.578,51.270
1621557102.338,22.949,30.762,21.484,15.625,5.371
1621557102.342,33.203,30.762,21.484,18.555,16.602
1621557102.355,26.855,29.297,20.508,19.043,-6.348
1621557102.359,26.367,26.855,23.438,22.461,-29.785
1621557102.363,31.738,29.785,27.832,26.855,42.480
1621557102.367,38.574,35.645,30.762,33.203,81.543
1621557102.371,42.480,40.039,32.227,37.109,58.594
1621557102.375,37.598,39.062,35.156,40.527,14.160
1621557102.379,31.250,35.645,36.621,37.109,-18.066
1621557102.382,23.438,34.668,34.180,27.344,-21.484
1621557102.386,25.391,34.668,38.574,33.203,24.902
1621557102.390,20.020,32.227,40.039,36.621,60.059
1621557102.394,11.719,31.250,36.133,28.809,38.086
1621557102.398,18.066,32.227,40.527,30.273,73.730
1621557102.393,21.973,29.785,39.062,35.645,84.961
1621557102.397,23.926,32.227,34.668,39.062,-3.906
1621557102.401,21.973,30.762,34.668,28.320,-49.805
1621557102.405,18.555,26.367,32.227,16.113,-10.254
1621557102.409,18.066,25.391,31.738,23.926,-10.742
1621557102.413,20.996,30.762,33.691,25.879,48.828
1621557102.417,24.414,38.086,32.227,20.508,95.703
1621557102.420,23.926,35.645,30.273,18.066,107.910
1621557102.424,28.320,32.227,31.738,21.484,52.734
1621557102.428,33.203,34.180,32.227,27.344,-42.480
1621557102.432,37.109,32.715,30.273,29.297,27.832
1621557102.436,40.039,32.227,25.879,25.879,91.797
1621557102.449,41.992,34.180,24.414,29.785,48.828
1621557102.453,42.969,36.621,23.926,35.645,41.016
1621557102.457,42.480,35.645,23.438,33.203,18.066
1621557102.461,41.992,33.203,24.414,31.250,23.926
1621557102.465,40.039,35.156,27.344,29.297,76.172
1621557102.469,35.645,37.109,31.250,25.879,26.855
1621557102.473,28.809,37.109,31.250,24.902,-36.621
1621557102.476,27.832,36.133,34.180,24.902,4.395
1621557102.480,27.344,33.203,36.621,26.367,15.625
1621557102.484,28.320,30.762,34.668,31.250,15.137
1621557102.488,29.297,29.785,34.668,32.715,65.430
1621557102.492,26.367,30.762,35.156,30.273,60.547
1621557102.487,21.484,34.180,33.203,28.809,3.906
1621557102.491,11.719,30.762,31.250,24.414,-0.977
1621557102.495,15.625,28.320,35.645,24.414,-3.418
1621557102.499,16.113,25.879,37.598,20.508,-11.230
1621557102.503,9.277,23.926,33.691,14.160,46.875
1621557102.507,7.324,24.902,34.668,16.602,35.156
1621557102.511,17.578,27.344,36.133,20.020,30.762
1621557102.514,32.227,28.320,29.785,22.949,55.176
1621557102.518,37.109,28.809,27.344,22.949,-32.715
1621557102.522,27.344,27.832,29.785,15.137,-21.973
1621557102.526,24.902,29.785,30.762,11.230,44.434
1621557102.530,31.738,36.133,27.832,16.113,16.113
1621557102.542,29.785,34.180,24.902,14.648,62.988
1621557102.546,32.227,32.715,27.344,15.625,41.992
1621557102.550,34.668,34.180,30.273,23.926,4.883
1621557102.554,36.621,33.691,30.762,27.344,38.086
1621557102.558,41.016,33.203,32.227,26.855,37.109
1621557102.562,37.598,35.645,38.086,30.273,42.969
1621557102.566,28.809,35.645,37.598,31.738,9.277
1621557102.569,24.414,30.273,31.250,32.227,-34.668
1621557102.573,20.996,27.832,31.738,29.297,28.320
1621557102.577,15.625,29.785,32.227,26.855,63.477
1621557102.581,15.137,31.738,30.762,27.344,-20.020
1621557102.585,20.996,35.645,31.738,29.297,2.930
1621557102.582,25.879,36.621,31.738,35.156,33.203
1621557102.586,21.973,33.691,30.273,29.785,25.879
1621557102.590,17.090,32.227,31.250,22.949,-2.441
1621557102.594,22.461,28.320,30.762,23.926,-1.953
1621557102.598,28.809,27.832,35.156,27.344,62.988
1621557102.602,33.203,28.809,38.574,34.180,50.293
1621557102.606,36.133,27.344,37.109,38.086,48.340
1621557102.609,40.527,28.320,33.691,37.598,13.672
1621557102.613,43.457,31.738,32.227,38.086,-15.137
1621557102.617,38.574,30.273,31.250,34.180,3.418
1621557102.621,39.062,31.738,30.762,28.809,-16.602
1621557102.625,41.992,34.180,33.691,31.738,6.836
1621557102.636,42.969,34.180,34.668,35.645,33.203
1621557102.640,39.062,33.203,35.156,36.133,17.090
1621557102.644,30.762,30.762,39.062,29.785,21.484
1621557102.648,26.367,30.762,38.574,24.414,8.789
1621557102.652,25.391,28.320,35.156,25.391,10.254
1621557102.656,20.996,23.926,36.133,21.973,35.156
1621557102.660,15.137,23.438,38.086,20.996,-29.297
1621557102.663,14.160,24.902,37.109,18.066,7.812
1621557102.667,18.066,28.320,36.621,18.555,7.812
1621557102.671,22.949,30.273,34.668,22.461,-43.457
1621557102.675,27.344,28.320,36.621,20.996,-3.418
1621557102.679,27.344,34.180,36.621,13.672,50.293
1621557102.674,27.344,40.527,31.738,15.625,54.199
1621557102.678,35.645,35.645,31.250,25.391,37.109
1621557102.682,39.062,31.738,33.203,25.391,76.660
1621557102.686,40.039,31.250,35.156,30.762,104.980
1621557102.690,39.551,31.738,34.180,36.133,32.715
1621557102.694,41.504,33.203,31.738,34.668,-26.855
1621557102.698,44.922,32.715,31.250,31.250,2.441
1621557102.701,38.574,27.344,31.250,25.879,-2.930
1621557102.705,29.785,23.926,28.809,22.949,-63.477
1621557102.709,24.414,29.297,30.273,23.926,1.953
1621557102.713,19.043,32.715,33.691,24.414,75.195
1621557102.717,18.066,30.273,30.762,18.555,65.430
1621557102.730,15.625,28.320,31.738,12.695,41.016
1621557102.734,14.160,27.832,35.156,12.695,45.898
1621557102.738,18.555,31.738,33.203,10.254,10.254
1621557102.742,25.391,35.645,34.180,5.859,-13.184
1621557102.746,29.297,36.133,38.086,10.254,81.055
1621557102.750,31.250,39.551,40.527,23.926,60.059
1621557102.754,26.367,38.086,42.480,29.785,-26.367
1621557102.757,21.484,36.133,41.016,25.391,-38.086
1621557102.761,22.461,32.715,40.039,26.367,5.371
1621557102.765,22.461,28.809,41.504,30.273,30.273
1621557102.769,27.832,29.297,44.434,36.133,44.922
1621557102.773,34.180,30.273,44.922,37.598,62.988
1621557102.769,33.691,29.785,41.016,28.809,72.754
1621557102.773,34.180,32.227,37.109,24.414,70.801
1621557102.777,38.574,37.598,33.203,28.809,105.469
1621557102.781,41.504,39.062,31.250,26.855,59.082
1621557102.785,38.086,39.062,28.809,18.066,-9.766
1621557102.789,33.691,37.598,26.367,14.648,36.621
1621557102.793,33.691,33.203,30.762,23.926,95.215
1621557102.796,35.645,32.227,32.227,29.785,33.691
1621557102.800,31.738,33.691,33.203,22.949,15.625
1621557102.804,25.391,34.180,36.133,16.602,69.336
1621557102.808,23.438,27.832,37.109,18.066,37.598
1621557102.812,23.926,26.367,38.086,24.414,11.719
1621557102.824,24.414,31.738,38.574,26.367,12.207
1621557102.828,28.809,30.762,40.039,26.855,24.414
1621557102.832,29.785,33.203,41.016,29.785,18.066
1621557102.836,27.832,34.668,40.039,32.227,13.672
1621557102.840,27.344,31.738,40.039,32.227,23.926
1621557102.844,22.949,31.250,39.062,26.367,-16.113
1621557102.848,18.066,32.227,36.621,18.555,-9.766
1621557102.851,13.672,28.320,34.668,18.066,45.898
1621557102.855,12.695,25.391,31.738,17.090,40.527
1621557102.859,8.789,25.391,27.832,8.789,53.223
1621557102.863,3.906,23.438,30.273,4.395,48.340
1621557102.867,4.395,23.926,31.738,13.184,37.598
1621557102.861,5.371,24.902,29.297,22.949,27.344
1621557102.865,15.625,28.809,35.645,28.320,27.832
1621557102.869,20.996,29.297,36.133,28.320,45.410
1621557102.873,22.949,29.297,34.668,25.879,13.184
1621557102.877,30.273,28.809,35.156,34.180,22.461
1621557102.881,34.668,31.738,31.738,35.156,16.113
1621557102.885,32.715,32.715,31.250,25.879,55.664
1621557102.888,33.691,34.180,31.250,24.902,45.898
1621557102.892,38.574,34.180,31.250,28.809,0.000
1621557102.896,38.574,31.738,29.785,27.832,52.734
1621557102.900,38.086,30.762,30.273,26.367,25.879
1621557102.904,43.945,35.645,30.273,27.344,-0.977
1621557102.918,45.898,35.645,30.762,33.203,46.387
1621557102.922,52.246,34.180,34.668,35.156,50.781
1621557102.926,53.223,34.668,32.715,27.344,-5.371
1621557102.930,53.223,32.715,32.227,24.902,-5.859
1621557102.934,49.805,33.691,36.621,27.344,-16.113
1621557102.938,36.621,28.809,37.598,23.926,3.906
1621557102.942,33.203,25.879,39.551,23.926,5.859
1621557102.945,29.785,31.738,40.039,29.297,30.762
1621557102.949,25.391,33.691,37.598,29.297,35.156
1621557102.953,21.484,34.180,37.109,29.297,-15.137
1621557102.957,17.090,35.156,38.574,24.902,-31.250
1621557102.961,16.113,31.250,41.016,21.973,-39.062
1621557102.955,10.742,31.738,39.062,22.461,25.391
1621557102.959,10.742,29.297,37.109,25.391,53.223
1621557102.963,10.742,26.855,38.086,28.809,31.250
1621557102.967,12.207,28.320,41.992,32.227,47.363
1621557102.971,12.695,30.762,42.480,31.738,53.223
1621557102.975,21.973,32.715,39.062,30.273,46.875
1621557102.979,39.062,31.738,37.598,34.180,41.016
1621557102.982,41.016,32.227,35.645,28.320,30.762
1621557102.986,43.945,30.273,36.133,20.996,34.180
1621557102.990,46.387,29.785,36.133,20.996,49.805
1621557102.994,42.969,29.785,30.273,20.508,27.832
1621557102.998,44.922,30.273,29.785,19.043,65.918
1621557103.011,46.875,35.156,33.203,19.531,6.348
1621557103.015,42.969,36.621,31.738,21.973,-88.867
1621557103.019,44.434,34.668,28.809,26.855,-14.160
1621557103.023,49.316,34.180,26.367,25.879,4.395
1621557103.027,42.969,32.715,27.832,20.508,10.254
1621557103.031,40.039,30.273,27.344,18.066,71.289
1621557103.035,40.039,27.344,27.832,21.484,68.359
1621557103.038,35.156,30.762,29.785,22.461,20.996
1621557103.042,31.250,33.203,28.809,20.508,6.348
1621557103.046,23.926,24.902,29.297,19.531,2.441
1621557103.050,21.973,21.484,27.832,20.996,6.348
1621557103.054,20.996,26.367,26.367,22.949,60.059
1621557103.050,20.996,30.273,28.320,26.367,106.934
1621557103.054,22.461,31.250,29.785,25.879,83.496
1621557103.058,19.531,31.250,31.250,27.344,45.410
1621557103.062,20.508,29.297,33.203,34.180,50.781
1621557103.066,25.391,27.832,35.645,37.109,0.000
1621557103.070,22.461,29.297,39.062,34.668,11.719
1621557103.074,15.625,28.320,39.062,34.180,71.289
1621557103.077,21.484,26.367,37.109,35.645,9.277
1621557103.081,28.320,26.367,39.551,33.203,8.301
1621557103.085,28.809,28.809,41.016,29.785,55.664
1621557103.089,33.203,33.691,38.574,32.715,66.406
1621557103.093,35.645,37.109,35.645,34.180,56.641
1621557103.105,37.109,39.551,36.133,30.273,16.113
1621557103.109,36.621,38.086,34.668,23.926,-20.996
1621557103.113,32.715,37.598,32.227,17.578,-12.207
1621557103.117,34.668,37.598,33.203,20.020,17.090
1621557103.121,39.062,34.668,31.738,22.949,34.668
1621557103.125,42.480,35.645,32.715,22.949,33.691
1621557103.129,41.504,38.086,29.785,21.973,52.246
1621557103.132,42.480,32.715,28.320,22.949,1.465
1621557103.136,48.340,28.809,34.180,30.273,19.531
1621557103.140,44.434,32.227,34.180,32.715,11.230
1621557103.144,41.016,33.691,34.668,28.320,-18.555
1621557103.148,37.598,36.621,33.203,26.855,15.137
1621557103.143,35.156,35.645,30.762,32.715,-9.766
1621557103.147,38.574,34.668,34.668,37.109,22.461
1621557103.151,37.598,37.109,32.227,35.156,53.223
1621557103.155,31.250,35.156,27.344,30.273,56.641
1621557103.159,29.785,35.156,27.344,25.391,85.449
1621557103.163,27.344,34.180,27.344,22.949,41.016
1621557103.167,21.973,34.180,30.762,20.020,25.879
1621557103.170,17.578,31.738,32.715,18.555,18.066
1621557103.174,16.602,28.809,30.273,21.484,15.137
1621557103.178,20.020,28.809,31.250,30.273,20.508
1621557103.182,16.113,31.738,34.180,34.668,-10.254
1621557103.186,14.648,34.180,34.668,32.715,-1.953
1621557103.199,20.508,36.133,32.227,34.668,48.828
1621557103.203,22.461,35.156,33.691,32.715,56.152
1621557103.207,25.391,31.250,36.621,23.926,62.988
1621557103.211,25.879,30.762,32.227,15.625,43.457
1621557103.215,19.531,32.715,29.785,13.672,10.254
1621557103.219,21.484,31.250,32.227,15.137,26.367
1621557103.223,29.785,30.762,31.738,19.043,37.598
1621557103.226,32.715,31.738,33.691,21.973,6.348
1621557103.230,34.668,29.297,34.180,18.555,14.160
1621557103.234,38.086,28.320,30.762,21.484,52.734
1621557103.238,41.504,29.785,28.809,28.809,49.316
1621557103.242,43.945,31.250,30.273,31.250,-13.672
1621557103.236,41.016,30.273,36.133,36.133,-17.578
1621557103.240,38.574,29.297,36.133,41.016,58.594
1621557103.244,43.945,32.227,35.645,41.992,65.918
1621557103.248,38.574,29.297,38.086,39.551,67.383
1621557103.252,29.297,27.344,37.109,31.738,58.594
1621557103.256,23.438,29.785,35.156,23.926,36.133
1621557103.260,18.555,30.273,36.133,22.461,72.266
1621557103.263,10.254,22.461,38.086,18.555,63.477
1621557103.267,5.859,17.578,37.109,12.695,51.758
1621557103.271,7.324,20.996,33.203,14.160,95.215
1621557103.275,11.230,22.461,30.273,22.461,85.449
1621557103.279,8.301,24.414,33.691,23.438,65.918
1621557103.292,-1.465,27.832,34.180,13.672,18.555
1621557103.296,-6.348,27.832,31.250,6.836,25.391
1621557103.300,-3.906,26.367,32.715,7.324,37.598
1621557103.304,5.371,28.809,36.133,12.695,-9.766
1621557103.308,12.207,33.203,35.156,14.648,14.648
1621557103.312,17.090,30.273,33.203,10.254,58.594
1621557103.316,25.391,28.320,33.203,11.230,22.949
1621557103.319,32.715,30.762,32.227,10.742,-7.812
1621557103.323,36.133,26.855,32.715,10.742,2.441
1621557103.327,39.062,29.297,33.203,11.719,-2.930
1621557103.331,41.016,32.715,31.738,16.113,1.953
1621557103.335,41.504,29.785,30.273,23.926,16.113
1621557103.331,41.016,33.203,30.273,27.344,-4.883
1621557103.335,40.039,36.133,28.320,27.832,12.207
1621557103.339,40.039,37.109,29.297,34.180,9.766
1621557103.343,40.527,36.621,35.156,43.457,19.531
1621557103.347,34.180,34.668,35.156,47.363,10.254
1621557103.351,26.855,34.180,32.715,42.480,-18.555
1621557103.355,19.043,32.715,31.738,33.203,7.324
1621557103.358,15.137,30.273,31.738,35.156,0.000
1621557103.362,19.531,29.297,34.180,33.203,3.906
1621557103.366,22.461,31.738,37.598,34.180,26.855
1621557103.370,17.578,32.227,36.133,30.762,37.109
1621557103.374,13.184,34.180,33.691,23.438,36.133
1621557103.386,14.160,34.180,41.504,26.855,26.367
1621557103.390,16.113,30.762,44.434,27.344,6.836
1621557103.394,17.090,28.809,38.086,20.508,34.668
1621557103.398,16.113,26.367,35.156,15.137,44.922
1621557103.402,18.555,28.320,36.621,21.973,52.734
1621557103.406,14.648,29.297,33.203,18.555,80.078
1621557103.410,17.090,29.297,31.250,17.578,-1.465
1621557103.413,28.320,31.250,33.203,29.297,-28.320
1621557103.417,32.227,30.273,31.738,33.691,-8.301
1621557103.421,41.992,32.715,31.738,34.180,-13.672
1621557103.425,43.945,32.227,35.645,38.086,-3.418
1621557103.429,39.062,30.762,39.062,35.156,-5.371
1621557103.424,38.574,32.227,33.691,29.297,1.953
1621557103.428,32.715,30.273,30.762,33.691,45.898
1621557103.432,30.762,30.762,32.715,39.551,56.152
1621557103.436,30.762,32.715,28.320,33.203,-40.527
1621557103.440,23.438,33.691,27.344,28.809,10.254
1621557103.444,27.344,25.391,29.297,36.621,45.898
1621557103.448,29.785,20.508,29.785,37.598,39.551
1621557103.451,22.461,26.367,31.250,30.273,6.836
1621557103.455,19.043,24.414,35.156,29.785,-22.461
1621557103.459,20.508,24.902,33.203,35.645,46.387
1621557103.463,17.578,29.785,28.809,38.086,23.438
1621557103.467,15.137,29.297,29.785,33.203,7.324
1621557103.480,16.113,29.297,29.297,33.691,83.008
1621557103.484,18.555,29.297,32.227,33.203,75.684
1621557103.488,20.996,29.297,32.227,34.668,51.270
1621557103.492,20.996,30.762,29.297,32.227,65.430
1621557103.496,18.066,28.320,29.785,25.391,30.762
1621557103.500,21.973,24.902,34.180,28.320,29.297
1621557103.504,23.438,24.414,36.133,31.738,-1.465
1621557103.507,19.043,26.367,35.645,33.203,-3.906
1621557103.511,18.555,28.809,36.133,31.250,52.734
1621557103.515,23.438,30.762,37.109,30.762,90.332
1621557103.519,32.227,29.297,35.156,28.320,68.359
1621557103.523,35.645,28.320,30.762,25.391,40.039
1621557103.517,31.738,30.273,28.320,24.902,38.086
1621557103.521,37.109,34.180,27.344,25.879,15.137
1621557103.525,46.387,37.109,26.367,29.297,18.066
1621557103.529,46.387,37.109,28.809,32.715,10.742
1621557103.533,42.480,32.227,34.180,30.762,29.785
1621557103.537,32.715,29.297,36.133,22.461,63.477
1621557103.541,30.273,32.227,37.109,20.996,88.867
1621557103.544,28.320,36.621,36.133,19.043,81.543
1621557103.548,21.484,34.668,36.133,19.043,27.344
1621557103.552,25.391,31.738,40.039,25.391,28.320
1621557103.556,27.344,30.273,37.598,27.344,23.926
1621557103.560,24.414,31.250,37.109,29.785,65.430
1621557103.573,26.855,33.203,39.551,29.785,13.672
1621557103.577,31.738,33.691,38.086,27.344,-14.160
1621557103.581,34.180,34.180,32.715,26.367,30.762
1621557103.585,41.504,31.738,34.180,32.715,-6.348
1621557103.589,33.691,27.344,37.109,33.691,-8.301
1621557103.593,23.438,30.762,35.156,25.391,-13.672
1621557103.597,24.902,33.691,36.133,28.809,-3.418
1621557103.600,24.902,32.227,37.109,32.715,2.441
1621557103.604,27.344,30.762,38.574,33.691,47.363
1621557103.608,23.926,30.762,40.527,32.227,24.902
1621557103.612,21.484,35.156,41.504,31.738,9.277
1621557103.616,22.461,34.180,41.016,32.715,21.484
1621557103.612,26.855,31.738,40.039,37.109,13.184
1621557103.616,26.367,29.785,40.039,36.621,41.992
1621557103.620,21.973,28.320,41.016,31.250,81.055
1621557103.624,23.438,28.809,39.062,31.738,85.938
1621557103.628,25.879,29.297,42.480,40.039,57.129
1621557103.632,29.297,29.785,41.016,34.668,56.641
1621557103.636,27.344,30.273,36.133,24.902,57.129
1621557103.639,29.297,30.273,36.621,25.391,33.691
1621557103.643,32.227,30.762,35.156,25.879,-28.809
1621557103.647,35.645,31.738,33.203,22.461,-6.348
1621557103.651,37.109,33.691,30.273,14.648,23.926
1621557103.655,39.062,35.156,29.785,16.113,31.738
1621557103.668,44.922,32.715,32.715,24.902,37.109
1621557103.672,41.992,29.785,34.668,24.902,15.625
1621557103.676,38.086,31.250,33.691,24.414,25.391
1621557103.680,34.668,33.203,35.156,24.414,26.367
1621557103.684,30.273,31.250,35.156,25.391,108.398
1621557103.688,31.738,29.785,33.691,31.738,70.312
1621557103.692,27.832,32.715,33.203,28.320,86.914
1621557103.695,26.367,32.227,34.180,27.344,95.703
1621557103.699,34.180,32.715,35.645,39.062,24.414
1621557103.703,37.109,33.691,36.621,43.945,64.941
1621557103.707,39.062,28.809,39.551,41.992,-25.391
1621557103.711,39.551,30.762,40.039,37.598,20.996
1621557103.707,43.457,28.320,37.109,38.086,101.562
1621557103.711,44.434,25.879,34.180,41.504,49.805
1621557103.715,41.992,31.250,33.203,36.133,-6.348
1621557103.719,34.180,30.762,32.715,25.879,12.207
1621557103.723,16.602,30.273,30.273,21.973,-20.996
1621557103.727,13.672,29.297,31.738,23.438,-23.926
1621557103.731,19.043,23.438,33.691,20.508,68.848
1621557103.734,20.996,19.531,36.621,19.531,80.566
1621557103.738,21.973,22.461,41.504,19.043,20.508
1621557103.742,20.508,28.809,38.574,16.602,-22.461
1621557103.746,28.320,33.203,35.645,20.020,-38.574
1621557103.750,37.109,29.297,35.645,19.043,-27.344
1621557103.761,38.086,29.785,41.504,17.578,39.062
1621557103.765,37.109,32.227,42.969,20.996,59.082
1621557103.769,32.715,32.715,39.551,19.043,31.738
1621557103.773,29.297,30.762,39.062,18.555,22.461
1621557103.777,25.879,33.203,39.551,21.973,28.320
1621557103.781,26.367,34.180,41.504,20.996,27.344
1621557103.785,25.879,30.273,41.992,21.484,45.898
1621557103.788,25.391,30.273,38.574,26.367,25.879
1621557103.792,25.391,31.738,39.062,26.855,27.832
1621557103.796,22.461,29.785,39.551,25.391,28.809
1621557103.800,26.855,24.414,36.621,26.367,-10.742
1621557103.804,31.738,25.879,36.621,25.391,-23.926
1621557103.799,25.391,27.344,38.086,23.438,-21.973
1621557103.803,21.973,26.855,38.086,25.879,-15.625
1621557103.807,20.996,28.320,37.598,28.809,26.367
1621557103.811,26.855,29.785,40.039,27.344,22.949
1621557103.815,31.738,32.715,39.551,25.391,-11.719
1621557103.819,25.879,30.762,37.598,22.949,43.457
1621557103.823,24.414,30.273,35.156,20.020,35.645
1621557103.826,21.484,28.320,34.668,18.555,-9.277
1621557103.830,21.973,27.832,40.039,22.949,86.914
1621557103.834,25.391,30.273,41.504,22.949,56.641
1621557103.838,26.855,27.832,41.016,20.508,-20.020
1621557103.842,27.344,30.273,41.016,21.973,34.180
1621557103.855,26.855,30.762,37.598,23.926,17.578
1621557103.859,24.902,26.367,41.992,26.367,-23.438
1621557103.863,17.578,27.832,43.457,25.879,-11.719
1621557103.867,10.254,26.855,40.039,23.926,1.953
1621557103.871,7.324,22.949,37.598,24.902,65.430
1621557103.875,7.324,24.414,36.621,21.484,107.422
1621557103.879,14.160,26.855,38.574,20.508,84.473
1621557103.882,22.461,27.344,40.039,22.949,8.301
1621557103.886,27.344,29.297,44.434,27.832,4.883
1621557103.890,31.738,26.367,46.875,33.691,31.250
1621557103.894,33.203,24.414,45.898,32.715,63.965
1621557103.898,35.645,26.855,43.945,36.621,53.223
1621557103.912,39.062,28.809,41.504,43.945,40.039
1621557103.916,40.039,31.738,39.551,37.598,61.523
1621557103.920,36.621,29.785,39.062,27.344,23.926
1621557103.924,33.203,28.320,37.109,20.996,-2.441
1621557103.928,31.738,29.297,34.180,20.020,-30.762
1621557103.932,28.320,30.273,33.691,21.484,-8.301
1621557103.936,25.391,32.227,34.180,22.461,88.379
1621557103.939,27.832,30.762,31.250,20.508,28.320
1621557103.943,30.762,31.738,33.203,18.555,-10.254
1621557103.947,29.297,30.762,34.180,23.438,21.973
1621557103.951,30.273,28.809,35.156,25.879,22.949
1621557103.955,27.344,31.738,34.668,20.020,12.207
1621557103.949,27.832,33.203,37.598,24.414,41.992
1621557103.953,29.785,30.762,40.039,25.391,36.621
1621557103.957,26.367,30.762,40.527,19.531,28.320
1621557103.961,27.344,31.738,42.480,21.973,75.195
1621557103.965,30.762,29.785,39.062,26.855,41.016
1621557103.969,35.645,30.762,37.598,36.133,62.012
1621557103.973,35.645,27.832,37.598,40.039,78.613
1621557103.976,30.762,27.832,38.086,31.738,15.625
1621557103.980,25.391,29.785,36.621,28.320,50.293
1621557103.984,21.484,21.973,33.691,26.367,61.523
1621557103.988,26.855,18.555,35.645,22.949,18.066
1621557103.992,31.738,21.484,38.574,21.484,41.504
1621557103.986,30.273,23.926,41.504,22.949,45.410
1621557103.990,20.996,24.902,41.992,25.879,32.227
1621557103.994,19.531,24.414,35.156,26.855,25.879
1621557103.998,25.391,25.391,32.715,24.902,52.246
1621557104.002,26.855,28.320,35.156,22.949,77.148
1621557104.006,23.926,33.691,29.785,26.367,38.574
1621557104.010,28.320,38.086,28.320,32.227,-0.977
1621557104.013,32.715,36.133,32.715,34.668,4.883
1621557104.017,29.297,36.621,32.715,31.250,10.254
1621557104.021,23.926,40.039,29.785,25.879,40.527
1621557104.025,22.949,33.691,30.273,23.926,31.250
1621557104.029,19.531,30.762,28.809,20.508,24.414
1621557104.042,15.625,31.738,28.809,13.672,19.531
1621557104.046,15.137,33.691,34.668,9.766,-12.207
1621557104.050,14.648,31.738,36.621,7.324,-21.484
1621557104.054,18.555,31.250,32.715,9.277,30.273
1621557104.058,24.902,34.668,34.180,11.230,45.898
1621557104.062,28.809,35.156,37.598,14.160,5.859
1621557104.066,33.691,36.621,38.086,23.438,18.555
1621557104.069,37.109,36.621,36.621,28.809,41.016
1621557104.073,36.621,35.156,38.574,29.297,21.484
1621557104.077,32.227,32.715,40.527,25.879,14.648
1621557104.081,31.250,28.320,41.016,31.738,-11.719
1621557104.085,38.574,29.785,39.062,32.715,-14.160
1621557104.080,38.086,32.715,38.574,33.203,45.898
1621557104.084,31.250,30.273,38.574,33.691,62.012
1621557104.088,32.715,31.250,37.109,28.320,51.758
1621557104.092,37.598,34.668,38.574,35.156,14.160
1621557104.096,39.062,32.715,40.527,40.039,-16.602
1621557104.100,34.668,29.785,39.551,38.574,32.715
1621557104.104,32.227,32.715,40.527,40.527,86.914
1621557104.107,30.762,32.227,38.086,39.551,45.898
1621557104.111,27.832,28.320,31.250,40.527,-21.484
1621557104.115,26.855,23.438,29.297,35.645,-1.465
1621557104.119,20.020,23.438,30.762,27.344,24.902
1621557104.123,15.625,27.832,36.133,32.715,41.992
1621557104.136,15.137,29.785,40.527,37.109,23.926
1621557104.140,11.230,28.809,38.086,31.250,48.828
1621557104.144,9.277,27.344,39.551,21.484,20.508
1621557104.148,24.902,31.250,41.992,23.438,11.719
1621557104.152,34.668,31.250,37.109,28.320,91.309
1621557104.156,32.227,28.320,35.156,28.320,51.270
1621557104.160,33.203,30.762,35.156,20.508,17.090
1621557104.163,36.621,23.926,33.203,19.531,-20.508
1621557104.167,42.480,21.484,34.180,24.902,-94.238
1621557104.171,47.363,27.832,33.691,27.832,-45.898
1621557104.175,43.457,30.273,31.250,32.227,20.020
1621557104.179,32.715,28.320,32.227,29.297,-18.555
1621557104.175,33.203,29.297,33.203,27.832,-12.207
1621557104.179,36.621,32.227,29.785,32.227,73.730
1621557104.183,32.715,33.203,31.250,32.715,67.383
1621557104.187,24.902,31.738,35.156,31.738,12.207
1621557104.191,22.949,33.691,32.227,28.809,53.223
1621557104.195,21.484,35.156,30.762,28.320,92.773
1621557104.199,13.184,31.738,32.227,28.320,12.207
1621557104.202,15.625,28.320,30.762,28.809,21.973
1621557104.206,20.508,28.809,33.203,23.926,20.020
1621557104.210,21.484,31.250,30.762,23.926,-27.344
1621557104.214,23.438,35.156,29.785,27.344,-0.977
1621557104.218,22.949,29.785,29.785,19.043,66.895
1621557104.230,20.508,25.391,25.879,12.207,72.266
1621557104.234,24.414,31.250,28.320,14.160,34.180
1621557104.238,28.320,34.180,32.715,18.555,49.805
1621557104.242,27.344,31.250,33.203,18.066,51.270
1621557104.246,23.438,29.785,38.574,16.113,26.855
1621557104.250,22.949,29.785,41.992,15.625,35.156
1621557104.254,30.273,30.273,39.062,21.484,34.180
1621557104.257,28.809,30.762,39.062,22.949,-2.930
1621557104.261,25.391,28.320,40.527,23.438,30.762
1621557104.265,29.785,27.832,36.133,21.484,26.855
1621557104.269,27.832,26.367,35.645,16.113,15.137
1621557104.273,23.926,28.320,41.016,19.043,38.086
1621557104.267,22.949,26.367,41.504,22.949,-0.488
1621557104.271,26.367,22.949,40.527,29.785,-11.230
1621557104.275,30.762,26.367,41.504,33.203,31.250
1621557104.279,23.926,28.320,41.992,28.320,65.430
1621557104.283,15.625,28.320,39.551,23.438,-0.977
1621557104.287,18.066,27.344,41.504,24.414,-57.129
1621557104.291,20.508,28.809,43.945,33.203,3.418
1621557104.294,20.508,27.344,43.457,34.668,4.883
1621557104.298,20.996,25.879,44.434,23.926,75.195
1621557104.302,20.020,26.855,44.434,17.090,108.887
1621557104.306,24.414,25.879,46.387,25.879,83.984
1621557104.310,28.320,30.762,47.363,34.668,70.312
1621557104.324,31.738,34.668,41.016,31.250,-13.184
1621557104.328,29.785,34.180,40.039,23.438,-57.617
1621557104.332,26.367,32.715,41.016,21.973,-0.977
1621557104.336,29.297,29.785,39.551,28.809,66.895
1621557104.340,31.250,28.809,42.480,22.949,49.805
1621557104.344,33.691,29.297,42.480,13.672,-3.418
1621557104.348,35.156,28.809,36.621,10.742,0.000
1621557104.351,40.527,30.273,37.598,15.137,17.578
1621557104.355,41.504,29.785,38.574,22.949,41.992
1621557104.359,34.180,32.227,37.598,22.461,59.570
1621557104.363,29.297,34.180,37.598,19.531,44.922
1621557104.367,26.367,31.250,36.133,20.508,42.480
1621557104.361,21.973,26.855,30.762,26.855,39.062
1621557104.365,17.578,29.297,30.273,26.855,21.973
1621557104.369,18.555,31.250,31.738,22.949,16.602
1621557104.373,20.996,30.273,28.809,23.438,81.055
1621557104.377,23.926,28.809,26.855,25.879,83.496
1621557104.381,27.344,29.297,28.320,27.832,7.324
1621557104.385,27.344,32.227,30.762,22.949,3.418
1621557104.388,27.832,33.691,30.762,16.602,27.832
1621557104.392,25.879,30.273,27.344,16.602,-6.836
1621557104.396,24.414,31.250,28.809,18.066,-1.465
1621557104.400,23.926,33.691,30.762,18.555,52.734
1621557104.404,29.297,31.738,34.180,29.785,42.480
1621557104.418,34.668,35.645,37.109,37.598,34.180
1621557104.422,26.367,38.574,32.715,21.484,-6.348
1621557104.426,19.043,36.133,34.668,15.137,-1.953
1621557104.430,18.555,34.668,35.645,14.160,45.410
1621557104.434,19.531,33.691,36.133,15.625,45.898
1621557104.438,27.344,31.738,41.992,22.461,-18.066
1621557104.442,31.250,31.738,42.480,20.508,-32.227
1621557104.445,28.809,32.227,41.504,21.973,-1.953
1621557104.449,26.855,33.691,39.551,30.273,9.277
1621557104.453,26.855,33.203,38.086,36.133,19.043
1621557104.457,25.879,33.203,39.551,34.668,36.621
1621557104.461,22.461,34.180,38.574,30.273,28.320
1621557104.455,24.902,35.156,38.086,31.738,28.320
1621557104.459,25.879,35.156,37.109,39.062,52.246
1621557104.463,27.344,33.691,35.156,37.109,0.977
1621557104.467,25.879,33.691,35.156,31.738,-37.109
1621557104.471,21.484,34.180,36.621,30.762,4.395
1621557104.475,26.855,34.180,37.598,30.273,10.742
1621557104.479,34.180,33.691,39.062,33.691,63.477
1621557104.482,35.645,30.273,37.598,28.320,50.781
1621557104.486,37.109,27.344,37.109,26.367,-8.789
1621557104.490,39.551,29.785,36.133,28.320,2.930
1621557104.494,38.086,29.785,33.691,29.785,-2.441
1621557104.498,34.180,31.250,34.668,25.879,6.348
1621557104.511,27.832,32.227,32.227,20.020,60.059
1621557104.515,25.391,33.203,29.297,20.508,58.105
1621557104.519,27.344,33.691,32.227,23.438,-0.488
1621557104.523,26.855,30.273,30.762,20.996,-32.227
1621557104.527,27.832,30.762,30.762,17.578,-27.832
1621557104.531,27.832,34.668,34.668,16.602,51.270
1621557104.535,26.367,34.668,33.203,20.020,57.129
1621557104.538,20.996,31.738,30.273,24.414,50.781
1621557104.542,17.090,27.832,31.738,28.320,91.797
1621557104.546,20.996,27.832,37.109,34.180,56.641
1621557104.550,25.879,28.320,39.062,36.621,-7.324
1621557104.554,24.902,32.715,37.109,37.109,-34.668
1621557104.549,21.973,33.203,35.156,33.203,-31.738
1621557104.553,21.484,31.250,32.227,30.273,-39.551
1621557104.557,22.949,34.180,31.738,32.715,36.621
1621557104.561,32.715,35.645,34.180,37.109,63.965
1621557104.565,43.457,33.691,39.062,34.668,53.711
1621557104.569,42.480,34.668,39.551,30.762,56.152
1621557104.573,43.945,33.691,36.133,29.297,69.824
1621557104.576,48.828,31.738,36.133,30.273,57.129
1621557104.580,43.945,34.668,35.156,29.785,6.348
1621557104.584,36.621,37.109,33.203,22.949,-12.207
1621557104.588,39.062,36.133,33.203,23.438,17.090
1621557104.592,41.504,36.133,35.645,29.785,62.012
1621557104.605,39.062,33.691,35.156,25.879,69.336
1621557104.609,39.062,31.250,36.621,18.555,23.438
1621557104.613,36.133,31.738,38.574,18.066,30.273
1621557104.617,32.715,32.227,39.551,20.508,31.738
1621557104.621,25.879,29.297,41.016,20.996,-15.625
1621557104.625,20.020,25.879,39.062,21.484,-27.832
1621557104.629,11.719,24.414,37.109,20.020,50.293
1621557104.632,3.906,24.414,35.645,21.484,47.363
1621557104.636,11.719,26.855,36.621,27.832,-1.465
1621557104.640,12.207,26.367,40.527,26.855,47.852
1621557104.644,7.324,24.414,41.504,25.391,27.832
1621557104.648,17.090,25.391,37.598,32.715,-19.043
1621557104.642,27.832,26.367,39.551,40.039,27.832
1621557104.646,31.250,27.832,39.062,40.039,113.770
1621557104.650,37.109,31.738,35.156,37.598,94.238
1621557104.654,41.504,29.785,32.715,33.691,46.387
1621557104.658,46.875,31.250,32.715,40.039,12.695
1621557104.662,44.922,30.273,35.156,44.434,-19.043
1621557104.666,41.504,27.832,33.203,34.180,-6.348
1621557104.669,47.363,31.738,33.691,33.203,38.574
1621557104.673,48.828,35.645,37.109,38.086,35.156
1621557104.677,46.875,36.621,39.062,40.039,-5.859
1621557104.681,41.992,36.133,38.574,34.180,41.016
1621557104.685,34.180,32.715,41.016,23.438,47.852
1621557104.699,34.668,30.762,39.062,20.996,32.715
1621557104.703,35.645,35.645,32.227,12.695,-44.922
1621557104.707,32.715,35.156,30.762,6.836,-20.020
1621557104.711,29.785,28.320,28.320,8.301,35.645
1621557104.715,26.855,25.879,25.879,7.812,41.504
1621557104.719,25.391,32.715,26.855,16.113,73.730
1621557104.723,19.531,35.645,25.879,25.879,48.340
1621557104.726,9.277,31.738,23.438,22.461,6.348
1621557104.730,7.324,32.227,25.391,26.367,2.441
1621557104.734,14.160,33.691,29.785,35.156,15.137
1621557104.738,15.137,25.879,32.715,37.109,14.160
1621557104.742,11.719,21.973,33.203,37.598,-29.297
1621557104.736,11.230,26.367,35.156,38.086,38.574
1621557104.740,17.090,25.391,36.621,38.086,85.449
1621557104.744,22.949,23.926,33.691,36.133,37.598
1621557104.748,20.508,24.902,33.203,26.367,53.223
1621557104.752,26.367,23.926,35.156,23.438,92.773
1621557104.756,36.133,26.367,35.156,35.156,82.031
1621557104.760,44.434,31.250,33.203,41.992,43.457
1621557104.763,50.293,34.180,34.668,42.480,5.371
1621557104.767,48.340,34.668,35.645,39.551,-31.250
1621557104.771,45.898,38.574,36.133,40.527,24.902
1621557104.775,48.828,41.016,36.133,41.504,1.465
1621557104.779,43.457,35.645,33.691,34.180,17.090
1621557104.792,35.156,34.180,31.738,27.832,55.176
1621557104.796,29.785,34.180,29.785,18.555,28.320
1621557104.800,26.367,30.762,27.344,9.766,38.086
1621557104.804,26.367,27.832,26.855,0.488,27.832
1621557104.808,23.438,29.785,26.367,-8.789,63.965
1621557104.812,17.090,27.832,25.391,-7.812,77.148
1621557104.816,10.742,27.344,24.902,-2.441,13.184
1621557104.819,17.578,29.785,24.414,7.812,0.000
1621557104.823,20.508,32.227,26.855,15.137,20.996
1621557104.827,17.090,31.250,28.809,20.508,73.242
1621557104.831,22.461,28.320,30.762,31.250,30.762
1621557104.835,26.855,32.715,31.250,43.945,-18.066
1621557104.830,21.973,33.691,31.250,48.340,28.320
1621557104.834,20.508,27.832,32.715,43.457,-5.371
1621557104.838,19.531,24.902,31.738,38.574,27.832
1621557104.842,23.926,22.949,33.203,44.922,32.715
1621557104.846,30.273,22.461,36.133,49.805,10.742
1621557104.850,33.691,22.461,41.992,48.828,24.902
1621557104.854,35.156,22.461,40.527,48.828,17.090
1621557104.857,30.273,25.879,31.250,41.016,7.324
1621557104.861,31.738,33.691,27.832,35.645,-12.207
1621557104.865,35.156,36.133,27.344,32.715,-11.230
1621557104.869,28.809,33.691,27.344,30.273,8.789
1621557104.873,28.320,36.621,26.855,28.809,60.547
1621557104.886,35.645,35.156,28.809,31.250,77.637
1621557104.890,38.574,35.645,25.391,30.762,-4.395
1621557104.894,41.016,36.621,21.973,23.438,-37.109
1621557104.898,44.922,33.691,23.438,20.996,-18.066
1621557104.902,42.969,28.809,21.973,17.578,19.043
1621557104.906,37.109,27.832,22.461,15.625,34.180
1621557104.910,31.738,32.227,23.438,7.324,9.766
1621557104.913,28.809,33.691,26.855,1.465,24.902
1621557104.917,24.414,31.738,29.785,6.348,13.672
1621557104.921,24.902,30.273,29.785,12.695,8.789
1621557104.925,25.879,28.809,26.855,12.695,13.184
1621557104.929,24.414,28.320,27.344,12.695,12.695
1621557104.924,21.484,27.344,32.227,22.949,59.570
1621557104.928,22.461,26.855,32.227,34.668,48.340
1621557104.932,21.973,24.902,31.250,32.715,6.836
1621557104.936,24.902,23.926,36.621,33.691,4.395
1621557104.940,27.832,28.809,36.621,37.109,33.203
1621557104.944,29.785,26.367,36.133,41.016,42.969
1621557104.948,30.273,23.926,39.062,43.457,26.855
1621557104.951,27.832,29.785,35.156,40.527,68.848
1621557104.955,20.996,30.273,32.715,34.668,83.008
1621557104.959,21.484,30.273,31.738,39.551,34.668
1621557104.963,28.320,31.250,30.273,47.363,37.598
1621557104.967,29.785,30.273,32.227,43.945,28.809
1621557104.980,34.180,27.344,29.785,39.062,13.184
1621557104.984,41.016,26.367,28.320,38.574,16.113
1621557104.988,38.086,27.344,32.715,43.457,-2.930
1621557104.992,31.250,29.785,32.227,36.133,42.480
1621557104.996,31.250,33.691,28.809,26.855,31.738
1621557105.000,31.738,34.180,28.320,23.926,2.441
1621557105.004,34.180,32.715,27.832,21.484,70.801
1621557105.007,33.691,32.227,25.879,19.043,62.012
1621557105.011,29.785,34.180,25.879,9.277,30.273
1621557105.015,30.762,37.598,27.832,11.230,3.418
1621557105.019,35.156,39.062,29.297,20.020,7.324
1621557105.023,37.109,39.062,30.273,14.648,33.203
1621557105.036,35.156,38.086,31.250,8.789,20.508
1621557105.040,31.250,37.109,32.715,4.395,32.715
1621557105.044,26.855,35.645,32.227,1.465,-20.020
1621557105.048,33.691,36.133,32.227,0.977,-31.250
1621557105.052,30.762,34.180,34.668,0.000,61.523
1621557105.056,22.949,30.762,33.691,2.930,74.707
1621557105.060,28.809,32.715,30.762,13.672,12.695
1621557105.063,33.203,32.715,30.273,24.902,-7.324
1621557105.067,38.086,26.855,32.715,30.273,43.945
1621557105.071,36.133,26.855,32.715,32.227,112.793
1621557105.075,30.273,35.156,34.180,41.992,104.492
1621557105.079,34.668,36.621,38.574,46.875,59.082
1621557105.074,28.809,31.738,36.621,40.039,24.902
1621557105.078,21.484,29.297,34.180,44.434,19.043
1621557105.082,24.414,29.297,38.086,45.898,41.016
1621557105.086,25.391,27.832,36.133,43.457,47.852
1621557105.090,25.391,28.320,34.668,41.992,38.086
1621557105.094,24.902,29.297,33.203,36.133,62.012
1621557105.098,22.461,29.785,28.320,30.762,1.953
1621557105.101,25.391,27.832,27.344,33.203,-2.930
1621557105.105,32.715,24.414,28.320,34.668,12.695
1621557105.109,31.250,29.785,29.785,28.809,-10.742
1621557105.113,29.785,35.156,30.762,29.297,2.441
1621557105.117,36.133,30.762,30.762,32.227,62.012
1621557105.111,42.969,32.227,32.715,35.156,25.391
1621557105.115,42.969,34.180,37.109,32.227,-8.789
1621557105.119,36.133,35.645,37.598,22.461,8.301
1621557105.123,36.621,35.645,34.180,20.020,-21.484
1621557105.127,39.062,35.156,31.738,19.531,34.668
1621557105.131,35.156,35.156,29.785,11.719,12.207
1621557105.135,30.762,34.180,27.832,4.395,-9.277
1621557105.138,29.297,33.691,25.879,3.906,16.602
1621557105.142,30.762,35.645,24.414,7.324,0.488
1621557105.146,30.762,36.621,28.320,6.836,26.855
1621557105.150,28.809,32.715,27.832,1.465,30.273
1621557105.154,22.949,31.250,24.902,2.441,79.102
1621557105.167,23.926,32.715,25.879,13.184,98.145
1621557105.171,28.320,30.273,29.297,22.949,29.297
1621557105.175,25.879,29.297,32.715,27.344,3.906
1621557105.179,26.367,30.273,36.621,30.273,-7.812
1621557105.183,24.902,27.832,36.621,31.738,0.000
1621557105.187,24.902,27.344,34.668,39.062,21.973
1621557105.191,23.926,26.855,35.645,41.504,50.293
1621557105.194,12.695,24.902,31.738,33.203,33.203
1621557105.198,11.719,24.902,31.250,33.691,-14.648
1621557105.202,18.066,26.367,35.156,38.086,-28.809
1621557105.206,14.648,20.020,33.203,30.762,-1.465
1621557105.210,17.090,21.973,33.203,26.855,39.551
1621557105.205,22.949,29.297,29.297,24.414,11.230
1621557105.209,24.902,27.832,26.855,20.508,12.695
1621557105.213,23.926,27.344,30.273,18.555,70.312
1621557105.217,24.902,29.297,28.809,18.066,58.105
1621557105.221,31.250,25.879,27.832,21.484,23.438
1621557105.225,33.203,26.855,29.297,27.832,30.762
1621557105.229,31.738,30.273,32.227,30.273,37.109
1621557105.232,31.250,27.832,34.668,28.809,24.414
1621557105.236,28.809,27.832,34.180,23.438,22.461
1621557105.240,28.809,29.297,38.086,20.996,23.926
1621557105.244,25.879,32.227,37.598,18.066,36.621
1621557105.248,18.555,32.227,35.156,14.160,74.219
1621557105.261,22.461,27.832,36.621,15.137,64.453
1621557105.265,25.391,23.926,38.574,21.484,25.879
1621557105.269,19.531,29.297,38.574,19.531,35.156
1621557105.273,22.949,33.203,34.668,11.719,26.367
1621557105.277,24.902,31.738,33.691,14.160,14.160
1621557105.281,23.438,30.762,35.156,16.602,41.992
1621557105.285,27.832,32.715,38.086,21.484,49.316
1621557105.288,31.250,35.156,39.062,34.180,39.062
1621557105.292,24.902,32.715,36.133,31.250,28.320
1621557105.296,20.996,28.320,36.621,25.879,9.766
1621557105.300,22.949,32.715,38.086,32.227,-6.348
1621557105.304,21.973,30.273,37.109,34.668,-19.043
1621557105.299,16.113,26.367,37.109,27.832,31.738
1621557105.303,14.648,32.715,39.062,25.391,55.176
1621557105.307,20.020,29.297,37.109,28.320,33.691
1621557105.311,21.973,24.902,38.574,37.109,32.715
1621557105.315,21.973,25.879,41.992,41.504,65.430
1621557105.319,29.297,26.855,37.109,41.016,14.160
1621557105.323,35.156,32.715,34.668,47.363,29.297
1621557105.326,36.133,31.250,34.180,44.434,76.660
1621557105.330,46.875,30.273,35.645,44.434,53.711
1621557105.334,50.781,34.668,41.504,51.758,55.176
1621557105.338,46.875,35.156,39.551,42.969,65.918
1621557105.342,45.410,33.203,36.133,35.645,67.383
1621557105.355,42.480,30.762,36.133,34.668,19.043
1621557105.359,41.016,33.203,35.645,20.020,20.508
1621557105.363,34.180,29.297,34.668,10.742,62.988
1621557105.367,29.297,27.344,31.738,10.742,45.898
1621557105.371,27.344,29.785,30.273,13.672,32.227
1621557105.375,22.461,34.180,32.227,13.184,52.734
1621557105.379,23.926,35.645,30.762,13.184,5.859
1621557105.382,25.879,31.250,25.391,17.090,25.391
1621557105.386,23.926,32.227,26.367,21.484,55.664
1621557105.390,21.484,28.809,29.297,22.949,-8.301
1621557105.394,19.531,30.762,31.250,20.508,-44.922
1621557105.398,26.367,31.738,34.668,20.996,-35.645
1621557105.392,35.156,26.855,35.156,28.320,2.930
1621557105.396,35.156,27.832,35.645,32.715,59.082
1621557105.400,31.738,30.762,36.133,28.320,56.641
1621557105.404,30.762,30.762,34.180,25.391,-14.160
1621557105.408,35.645,29.785,28.809,29.297,2.930
1621557105.412,35.645,34.668,25.879,31.250,29.785
1621557105.416,28.809,36.133,26.367,23.438,28.809
1621557105.419,24.902,30.273,32.227,23.438,23.438
1621557105.423,24.414,26.367,37.109,22.949,5.859
1621557105.427,31.250,31.250,36.621,25.391,18.066
1621557105.431,35.156,33.691,36.621,29.297,-27.344
1621557105.435,32.227,29.785,39.551,25.879,37.598
1621557105.449,33.691,27.832,37.598,29.785,73.242
1621557105.453,36.133,28.320,36.621,31.250,50.781
1621557105.457,41.016,24.414,39.551,31.250,55.176
1621557105.461,44.922,24.414,38.574,31.738,4.883
1621557105.465,43.457,30.273,37.598,31.738,-1.465
1621557105.469,45.410,31.250,40.527,34.180,-26.367
1621557105.473,45.410,30.273,40.527,32.227,9.277
1621557105.476,32.227,30.762,41.016,25.879,93.750
1621557105.480,24.414,32.227,44.922,20.996,96.680
1621557105.484,24.414,30.273,43.457,17.578,69.824
1621557105.488,20.996,30.762,44.434,12.207,45.410
1621557105.492,21.973,33.203,53.223,16.113,24.414
1621557105.486,21.484,30.762,54.688,23.926,46.875
1621557105.490,18.555,32.227,49.316,23.438,42.480
1621557105.494,18.066,30.762,47.363,20.020,32.227
1621557105.498,21.973,25.391,44.434,24.414,-17.090
1621557105.502,25.879,24.414,42.969,34.668,-45.410
1621557105.506,31.738,25.879,41.016,38.574,21.484
1621557105.510,40.039,27.832,40.039,38.086,103.516
1621557105.513,44.434,29.785,42.480,40.527,63.965
1621557105.517,43.945,31.250,44.922,35.645,6.836
1621557105.521,38.574,30.273,41.504,33.203,79.590
1621557105.525,34.668,30.273,39.551,40.527,46.875
1621557105.529,32.227,31.250,41.504,40.039,2.930
1621557105.542,21.973,28.809,40.527,35.156,25.879
1621557105.546,17.578,25.391,44.434,37.109,49.316
1621557105.550,20.996,26.367,48.828,41.504,38.086
1621557105.554,24.414,28.809,52.246,45.898,5.371
1621557105.558,27.832,28.809,51.758,42.969,19.043
1621557105.562,31.250,31.738,48.340,39.062,5.859
1621557105.566,34.668,36.621,47.363,35.645,-14.648
1621557105.569,37.598,35.156,45.898,32.227,4.395
1621557105.573,36.133,37.109,45.410,31.250,-7.324
1621557105.577,35.156,40.039,41.992,21.484,-2.930
1621557105.581,40.527,38.086,39.551,19.531,-16.602
1621557105.585,44.922,37.109,39.062,22.461,-16.113
1621557105.580,44.434,39.062,40.039,20.508,-23.926
1621557105.584,40.527,32.715,43.945,18.555,1.465
1621557105.588,35.156,31.738,41.016,17.090,36.133
1621557105.592,33.203,35.156,37.109,18.066,10.254
1621557105.596,37.109,35.156,40.039,18.555,-25.879
1621557105.600,33.203,31.738,41.016,19.531,-28.320
1621557105.604,30.273,27.832,37.598,25.879,12.207
1621557105.607,30.762,24.902,36.133,27.832,24.902
1621557105.611,26.367,24.902,41.016,27.832,0.977
1621557105.615,23.438,28.320,42.969,31.738,-7.324
1621557105.619,19.043,31.738,41.016,30.273,9.766
1621557105.623,17.090,33.203,40.039,25.879,55.176
1621557105.636,19.043,30.273,37.109,23.438,53.223
1621557105.640,21.484,28.320,34.668,20.996,19.043
1621557105.644,26.367,27.344,36.621,22.461,36.133
1621557105.648,33.203,24.902,37.598,24.902,30.273
1621557105.652,35.645,24.414,36.133,28.809,96.191
1621557105.656,35.156,25.391,35.156,28.320,58.105
1621557105.660,38.086,25.879,34.668,22.949,-14.160
1621557105.663,41.504,25.391,34.180,29.297,36.133
1621557105.667,41.016,22.949,34.180,38.086,15.625
1621557105.671,36.133,25.391,33.691,40.527,61.035
1621557105.675,34.180,31.250,33.203,42.480,65.430
1621557105.679,34.668,34.668,34.180,41.504,41.016
1621557105.675,35.645,33.691,31.250,35.645,61.035
1621557105.679,37.109,32.715,31.250,28.809,64.941
1621557105.683,42.969,35.156,35.156,23.438,-5.859
1621557105.687,38.574,37.598,33.691,17.090,-19.043
1621557105.691,29.785,34.668,35.156,17.090,21.973
1621557105.695,33.203,30.762,38.086,22.461,80.566
1621557105.699,35.156,32.227,35.645,23.438,107.910
1621557105.702,29.297,29.297,36.133,22.949,33.691
1621557105.706,25.879,22.949,39.551,23.926,2.441
1621557105.710,28.320,23.438,42.480,26.855,26.367
1621557105.714,31.250,27.832,43.457,26.367,40.039
1621557105.718,24.902,26.855,43.457,24.414,30.273
1621557105.730,21.484,22.949,43.945,26.855,20.508
1621557105.734,25.391,23.438,42.480,32.715,20.996
1621557105.738,25.391,26.367,39.062,36.133,-4.883
1621557105.742,22.461,24.902,36.621,29.785,34.668
1621557105.746,27.344,25.879,35.156,30.273,109.863
1621557105.750,31.250,26.855,31.250,35.156,27.832
1621557105.754,31.738,27.344,28.320,33.691,-0.488
1621557105.757,37.109,27.832,30.273,35.645,36.133
1621557105.761,41.992,26.367,34.668,35.156,0.000
1621557105.765,45.410,30.762,37.598,36.621,30.762
1621557105.769,47.363,34.180,38.086,48.340,20.020
1621557105.773,41.992,32.715,38.086,46.875,35.645
1621557105.767,32.715,33.203,37.598,33.203,15.625
1621557105.771,27.832,31.250,38.574,33.691,-17.090
1621557105.775,21.973,34.668,37.598,31.250,30.762
1621557105.779,18.066,33.203,33.203,20.020,34.180
1621557105.783,19.043,29.297,33.691,19.531,-62.012
1621557105.787,18.555,32.227,32.715,20.020,-37.109
1621557105.791,20.508,30.273,27.344,21.484,33.691
1621557105.794,32.715,25.391,28.320,35.156,27.344
1621557105.798,41.504,25.391,32.715,36.133,46.387
1621557105.802,31.250,30.762,33.691,17.090,61.035
1621557105.806,25.879,34.180,33.691,17.578,53.223
1621557105.810,27.344,34.668,35.645,25.391,44.922
1621557105.824,25.391,33.203,33.691,20.996,-50.781
1621557105.828,19.043,32.227,31.250,10.254,-69.336
1621557105.832,15.625,33.691,32.227,12.207,-11.719
1621557105.836,17.090,32.715,31.738,19.043,-8.789
1621557105.840,19.531,30.762,34.668,19.043,10.254
1621557105.844,21.973,29.297,39.062,18.555,38.086
1621557105.848,20.020,31.738,38.086,17.090,51.758
1621557105.851,24.414,35.645,33.691,19.043,29.785
1621557105.855,27.344,30.273,30.762,23.926,1.953
1621557105.859,19.043,27.832,28.809,22.461,-4.883
1621557105.863,16.113,26.367,30.762,18.555,20.508
1621557105.867,20.020,31.250,34.668,18.555,46.387
1621557105.867,20.020,31.250,34.668,18.555,46.387
1621557105.869,35.156,32.715,32.715,29.297,-49.316
1621557105.873,31.738,29.785,36.621,27.344,-15.625
1621557105.877,32.227,30.273,31.738,20.020,24.902
1621557105.881,32.227,31.738,28.809,18.066,-13.672
1621557105.885,25.391,30.762,26.367,13.184,2.930
1621557105.888,25.391,32.715,24.414,12.207,13.184
1621557105.892,27.344,29.785,25.879,16.113,9.766
1621557105.896,20.020,30.273,26.855,13.184,45.410
1621557105.900,21.973,37.598,28.320,13.184,78.613
1621557105.904,24.902,36.621,28.320,10.742,70.312
1621557105.918,27.832,34.668,26.855,9.277,5.859
1621557105.922,31.738,37.598,26.855,12.695,-20.996
1621557105.926,26.855,38.574,28.320,7.812,52.734
1621557105.930,28.320,37.109,25.879,13.672,83.496
1621557105.934,31.738,38.574,26.367,24.414,98.145
1621557105.938,28.320,38.086,27.344,21.484,16.113
1621557105.942,31.738,34.180,29.785,15.137,35.645
1621557105.945,25.879,32.227,29.297,13.184,62.012
1621557105.949,16.113,33.691,24.414,12.207,-0.488
1621557105.953,17.090,31.738,28.320,14.160,2.930
1621557105.957,20.508,31.738,30.762,17.090,27.832
1621557105.961,21.973,31.250,30.273,17.578,13.184
1621557105.955,21.973,32.715,28.809,24.414,-2.441
1621557105.959,26.855,34.668,25.879,33.691,0.977
1621557105.963,23.926,32.715,23.438,27.832,7.324
1621557105.967,18.555,30.273,22.461,19.531,55.176
1621557105.971,20.020,31.250,27.832,24.414,65.918
1621557105.975,27.344,33.203,36.621,28.320,41.016
1621557105.979,30.273,32.715,38.086,28.809,83.984
1621557105.982,26.855,29.297,37.109,28.320,56.641
1621557105.986,28.320,26.855,37.109,25.391,-39.062
1621557105.990,32.715,30.762,39.551,25.879,-24.902
1621557105.994,38.574,36.621,38.574,23.926,-3.418
1621557105.998,37.598,38.574,34.180,20.996,0.000
1621557106.011,32.227,38.574,31.738,17.578,11.230
1621557106.015,35.156,37.598,33.203,18.066,3.418
1621557106.019,38.086,36.621,33.203,20.996,-15.137
1621557106.023,30.273,35.156,32.227,18.555,-30.273
1621557106.027,24.414,33.203,31.738,17.578,11.230
1621557106.031,27.344,33.203,31.738,18.066,86.426
1621557106.035,28.809,32.227,32.227,23.438,33.203
1621557106.038,29.785,38.086,34.180,27.832,33.203
1621557106.042,29.785,41.504,37.109,29.785,35.156
1621557106.046,33.691,37.598,38.086,31.738,37.109
1621557106.050,35.156,32.715,38.574,35.645,6.836
1621557106.054,32.227,32.227,40.527,36.133,13.672
1621557106.049,31.250,34.180,41.016,38.574,60.547
1621557106.053,29.785,28.809,40.039,43.945,20.020
1621557106.057,28.809,25.879,38.086,42.969,0.977
1621557106.061,31.250,27.344,38.086,47.363,11.719
1621557106.065,32.227,28.809,38.574,44.922,-7.812
1621557106.069,26.367,26.855,36.621,33.691,-16.602
1621557106.073,27.832,22.949,37.598,37.109,24.902
1621557106.076,34.180,24.414,38.574,44.922,-16.113
1621557106.080,32.715,23.438,37.109,41.504,-24.902
1621557106.084,32.227,21.484,35.156,34.668,56.152
1621557106.088,30.762,28.809,32.715,30.273,11.230
1621557106.092,32.715,28.320,34.668,30.762,34.180
1621557106.105,39.551,24.902,34.668,35.645,69.824
1621557106.109,41.504,30.762,33.203,35.156,9.277
1621557106.113,41.992,32.715,33.691,33.203,-17.090
1621557106.117,47.363,32.715,35.156,38.086,7.324
1621557106.121,51.270,36.133,38.574,44.434,67.383
1621557106.125,47.852,38.574,36.133,42.969,84.473
1621557106.129,42.969,36.621,32.227,37.109,34.180
1621557106.132,46.387,36.133,32.227,39.062,18.066
1621557106.136,46.875,39.062,35.645,41.504,55.176
1621557106.140,41.504,36.621,33.691,40.527,35.645
1621557106.144,40.039,32.227,29.785,41.016,87.402
1621557106.148,39.062,31.250,32.227,36.621,115.234
1621557106.142,31.738,31.738,32.227,34.668,-0.488
1621557106.146,27.344,34.668,33.203,35.156,-19.043
1621557106.150,32.227,35.645,32.227,31.250,13.672
1621557106.154,34.668,30.273,29.785,30.273,14.160
1621557106.158,36.133,31.250,35.645,39.551,37.598
1621557106.162,37.598,32.227,38.086,46.387,41.016
1621557106.166,40.527,34.668,38.086,45.898,20.020
1621557106.169,40.527,35.645,37.109,43.945,28.320
1621557106.173,44.434,28.809,34.180,43.457,56.641
1621557106.177,46.875,25.879,34.668,44.434,75.684
1621557106.181,44.922,27.344,34.180,44.434,94.238
1621557106.185,40.527,28.320,31.738,40.039,53.223
1621557106.199,44.922,29.785,29.785,38.086,29.785
1621557106.203,48.340,35.156,30.273,39.551,81.543
1621557106.207,38.086,35.156,30.762,37.598,77.148
1621557106.211,31.738,32.227,33.203,33.691,72.754
1621557106.215,30.762,33.691,33.203,34.668,102.051
1621557106.219,30.762,35.156,33.691,37.109,84.961
1621557106.223,25.391,34.668,36.621,34.180,15.625
1621557106.226,19.531,31.738,36.133,32.227,-17.090
1621557106.230,22.949,30.762,34.668,28.809,-7.812
1621557106.234,28.320,31.250,40.039,33.691,63.965
1621557106.238,29.297,32.227,42.480,40.527,57.129
1621557106.242,29.785,35.156,44.434,39.551,-8.301
1621557106.236,30.762,36.621,44.434,41.016,25.879
1621557106.240,32.715,37.109,40.039,45.410,102.539
1621557106.244,42.969,37.598,39.551,54.688,56.641
1621557106.248,46.387,37.598,40.527,53.711,55.176
1621557106.252,47.852,36.133,37.598,49.805,85.449
1621557106.256,50.781,35.156,35.645,49.805,-0.977
1621557106.260,49.316,36.621,35.156,48.828,-4.883
1621557106.263,46.875,36.133,33.203,45.410,9.766
1621557106.267,44.434,36.133,36.621,42.480,48.340
1621557106.271,38.086,34.668,41.504,36.133,42.480
1621557106.275,40.039,32.227,42.969,36.621,-33.203
1621557106.279,44.434,37.598,41.504,42.480,12.207
1621557106.293,39.551,38.574,39.062,39.062,74.707
1621557106.297,36.133,37.109,33.691,36.621,40.039
1621557106.301,34.180,37.109,28.809,43.457,9.277
1621557106.305,32.227,37.109,33.691,41.504,53.223
1621557106.309,30.273,36.133,35.645,31.738,89.844
1621557106.313,32.227,34.668,35.645,27.832,51.758
1621557106.317,33.691,37.109,37.109,27.344,23.438
1621557106.320,33.203,36.133,37.109,30.762,26.855
1621557106.324,28.809,32.715,35.645,26.367,-19.043
1621557106.328,21.973,32.227,35.645,20.020,-27.344
1621557106.332,24.902,29.785,35.645,20.020,12.695
1621557106.336,23.438,27.344,33.691,22.949,57.617
1621557106.330,12.207,29.297,32.227,25.879,42.480
1621557106.334,10.742,28.809,32.715,30.273,45.898
1621557106.338,18.555,26.855,34.668,41.504,24.414
1621557106.342,30.273,28.320,37.109,50.781,32.227
1621557106.346,37.109,34.668,39.062,51.270,48.828
1621557106.350,32.715,34.668,38.086,41.992,-24.902
1621557106.354,34.668,30.273,37.598,39.551,-1.953
1621557106.357,42.969,31.738,37.109,45.410,58.105
1621557106.361,46.387,34.668,34.668,48.828,52.734
1621557106.365,44.922,32.227,33.691,40.527,11.719
1621557106.369,47.852,27.344,32.227,30.273,19.043
1621557106.373,49.316,27.344,30.273,29.785,25.879
1621557106.386,45.898,28.320,32.227,32.227,51.270
1621557106.390,40.039,28.320,33.203,28.809,64.941
1621557106.394,40.527,27.832,31.250,21.484,-42.480
1621557106.398,40.039,32.227,30.273,20.508,-59.570
1621557106.402,39.551,35.156,29.297,21.973,-10.254
1621557106.406,48.828,37.109,30.273,24.414,-17.578
1621557106.410,47.363,37.598,31.738,27.832,-20.508
1621557106.413,37.598,31.738,29.785,27.344,-8.301
1621557106.417,35.156,28.809,27.344,25.391,56.152
1621557106.421,36.621,28.320,25.391,28.809,58.594
1621557106.425,33.691,27.344,25.879,30.273,44.922
1621557106.429,26.855,26.367,29.297,27.344,62.988
1621557106.424,20.508,24.902,31.250,31.250,60.547
1621557106.428,10.742,24.902,32.715,34.668,23.438
1621557106.432,6.348,23.438,33.203,33.203,-6.348
1621557106.436,8.301,24.902,31.250,33.203,23.438
1621557106.440,13.184,27.344,28.809,29.297,18.066
1621557106.444,20.020,28.320,31.738,30.762,30.762
1621557106.448,23.438,29.297,31.738,30.273,109.863
1621557106.451,29.785,33.691,29.297,30.273,57.129
1621557106.455,37.109,35.156,33.203,34.668,12.207
1621557106.459,39.551,33.203,37.109,39.551,43.457
1621557106.463,44.434,32.227,34.668,40.039,27.832
1621557106.467,45.898,33.691,32.715,34.668,59.570
1621557106.480,41.992,34.668,31.738,28.809,117.188
1621557106.484,42.480,33.691,26.855,31.738,104.492
1621557106.488,54.688,35.645,28.320,40.527,4.883
1621557106.492,54.199,37.598,31.250,31.738,9.277
1621557106.496,47.363,38.086,31.738,26.855,81.543
1621557106.500,46.387,38.086,32.227,31.250,73.730
1621557106.504,46.875,40.039,35.156,30.273,-4.395
1621557106.507,45.410,39.062,34.180,23.926,-4.883
1621557106.511,41.504,35.156,32.715,20.996,19.531
1621557106.515,39.551,35.156,37.109,28.320,-10.254
1621557106.519,35.645,35.156,37.109,30.273,23.438
1621557106.523,33.691,31.250,38.086,28.320,52.246
1621557106.517,26.855,24.902,40.527,29.785,4.395
1621557106.521,22.461,27.344,41.016,33.691,44.434
1621557106.525,21.973,33.203,39.062,29.297,51.758
1621557106.529,14.648,30.762,38.086,23.438,8.789
1621557106.533,5.859,28.809,40.527,26.367,32.715
1621557106.537,8.301,29.297,42.480,28.320,51.270
1621557106.541,16.113,28.809,41.016,27.344,58.594
1621557106.544,15.137,27.832,41.016,25.391,31.738
1621557106.548,10.254,28.809,41.504,19.531,33.203
1621557106.552,10.742,30.762,42.969,11.719,44.434
1621557106.556,17.578,32.715,39.062,18.066,8.301
1621557106.560,25.391,28.320,35.645,27.832,22.949
1621557106.574,29.785,25.391,39.551,25.391,59.082
1621557106.578,29.785,30.273,38.574,20.020,21.973
1621557106.582,37.598,32.227,36.621,18.555,-12.207
1621557106.586,41.016,32.715,33.203,16.602,21.973
1621557106.590,41.504,33.203,30.273,18.555,-4.395
1621557106.594,40.039,35.156,30.273,23.926,-21.484
1621557106.598,39.551,36.621,35.156,28.320,27.344
1621557106.601,41.992,35.156,39.062,33.691,29.297
1621557106.605,42.480,33.203,40.039,36.133,1.465
1621557106.609,38.574,36.133,41.016,34.180,-2.441
1621557106.613,31.250,38.574,40.039,34.180,17.090
1621557106.617,34.180,36.621,40.527,38.086,30.762
1621557106.611,38.574,35.156,42.480,45.898,-2.441
1621557106.615,32.715,33.691,39.551,40.527,-8.789
1621557106.619,28.809,31.738,41.016,31.738,9.277
1621557106.623,22.949,30.762,40.527,34.668,-21.484
1621557106.627,17.090,28.320,37.109,30.762,-34.180
1621557106.631,14.648,27.832,40.527,24.902,-19.531
1621557106.635,15.625,26.855,43.457,23.438,-27.832
1621557106.638,19.043,30.273,38.086,27.344,-14.648
1621557106.642,20.996,29.785,37.598,26.855,20.996
1621557106.646,22.949,23.926,39.062,23.926,45.898
1621557106.650,25.391,24.414,34.668,22.949,66.895
1621557106.654,26.367,28.809,32.715,13.672,64.453
1621557106.667,24.414,26.367,33.203,6.836,9.766
1621557106.671,28.809,24.414,33.691,9.277,11.719
1621557106.675,30.273,29.297,31.250,8.789,21.484
1621557106.679,26.367,32.227,30.273,10.254,-14.160
1621557106.683,31.250,32.227,34.180,17.578,31.738
1621557106.687,37.109,37.598,31.738,23.926,29.297
1621557106.691,37.598,40.039,28.320,21.973,31.738
1621557106.694,39.551,37.109,34.668,25.391,31.738
1621557106.698,38.574,38.086,38.086,37.598,-3.418
1621557106.702,41.992,36.133,35.645,44.922,-41.992
1621557106.706,37.598,34.668,33.691,42.480,-20.996
1621557106.710,25.879,32.227,31.250,38.086,67.383
1621557106.705,22.461,26.367,32.227,41.504,23.926
1621557106.709,21.973,26.367,36.621,49.316,-29.785
1621557106.713,21.973,27.832,35.645,45.898,58.594
1621557106.717,19.531,29.785,38.574,37.598,61.035
1621557106.721,20.020,30.762,40.039,33.203,7.324
1621557106.725,23.926,27.832,37.598,35.156,1.465
1621557106.729,24.902,28.809,38.574,36.133,32.227
1621557106.732,21.484,30.762,36.621,30.273,93.750
1621557106.736,20.508,32.715,35.645,24.414,30.762
1621557106.740,18.066,36.133,39.062,23.926,28.809
1621557106.744,20.996,34.668,38.574,26.855,114.258
1621557106.748,30.273,34.668,36.133,20.020,68.359
1621557106.761,31.250,35.156,37.598,12.695,15.137
1621557106.765,34.180,35.156,35.156,16.602,-0.977
1621557106.769,37.109,36.133,32.715,21.484,-35.645
1621557106.773,43.945,39.551,34.668,24.902,2.441
1621557106.777,49.316,44.922,33.691,21.973,43.945
1621557106.781,45.898,41.016,34.668,19.531,53.223
1621557106.785,49.805,38.086,34.668,25.391,43.945
1621557106.788,47.363,37.109,31.250,23.438,8.301
1621557106.792,35.156,34.180,32.227,19.531,24.414
1621557106.796,26.855,32.227,32.715,20.020,-2.441
1621557106.800,17.578,27.344,32.227,20.020,-0.488
1621557106.804,14.160,26.855,34.668,26.367,1.465
1621557106.799,13.672,28.809,38.086,31.250,-43.457
1621557106.803,14.648,26.855,40.039,31.738,-3.906
1621557106.807,15.137,25.879,39.062,32.715,45.898
1621557106.811,20.996,27.344,39.062,37.598,27.832
1621557106.815,21.484,28.809,39.062,36.621,-14.648
1621557106.819,19.043,26.367,38.086,27.344,13.184
1621557106.823,17.578,23.926,38.086,24.902,35.645
1621557106.826,21.484,26.855,37.109,30.273,15.625
1621557106.830,26.855,27.344,37.598,28.320,-30.762
1621557106.834,18.555,26.367,33.203,17.090,-8.301
1621557106.838,16.113,27.344,31.250,16.113,53.223
1621557106.842,23.438,33.203,36.621,25.879,70.312
1621557106.855,24.902,33.691,35.156,30.762,27.344
1621557106.859,21.484,24.902,33.203,31.250,2.930
1621557106.863,13.184,28.320,37.109,29.297,16.113
1621557106.867,15.137,32.715,37.598,28.809,32.227
1621557106.871,27.832,33.203,40.039,33.203,27.344
1621557106.875,28.320,33.691,44.922,29.297,-3.418
1621557106.879,26.855,30.762,42.480,20.996,-12.207
1621557106.882,34.668,32.715,41.992,24.414,27.344
1621557106.886,43.457,39.062,43.945,29.785,20.996
1621557106.890,41.504,38.086,37.598,24.902,27.344
1621557106.894,34.180,34.668,34.668,17.578,-6.836
1621557106.898,33.203,34.668,33.691,20.996,-0.488
1621557106.892,36.621,39.551,30.762,26.855,20.508
1621557106.896,38.086,35.645,33.203,34.180,-1.465
1621557106.900,40.527,31.738,33.691,38.086,49.316
1621557106.904,46.387,35.156,31.250,37.598,24.902
1621557106.908,45.898,34.180,30.273,35.156,25.879
1621557106.912,41.992,33.203,32.227,32.715,42.480
1621557106.916,38.086,34.668,29.785,28.320,17.090
1621557106.919,35.156,35.645,23.438,23.926,64.453
1621557106.923,34.180,36.133,23.926,21.484,73.730
1621557106.927,31.250,36.621,27.344,19.531,32.715
1621557106.931,27.832,33.203,29.297,16.602,1.465
1621557106.935,26.855,27.832,34.668,12.695,0.977
1621557106.949,20.996,28.320,34.668,8.789,44.922
1621557106.953,17.090,29.297,32.715,10.254,52.734
1621557106.957,15.625,30.762,33.203,12.695,44.922
1621557106.961,12.695,32.227,29.785,14.160,26.367
1621557106.965,16.113,29.297,25.879,16.113,26.855
1621557106.969,18.066,26.367,26.855,21.973,27.344
1621557106.973,13.672,27.832,34.668,31.250,3.906
1621557106.976,5.859,27.832,41.016,26.855,14.160
1621557106.980,2.930,27.344,41.016,25.391,52.246
1621557106.984,4.883,28.320,40.039,31.738,49.316
1621557106.988,10.254,27.344,40.527,34.180,68.848
1621557106.992,17.090,26.367,37.598,24.902,58.594
1621557106.986,25.391,23.438,37.598,25.879,12.207
1621557106.990,35.645,20.996,37.109,36.133,35.645
1621557106.994,43.457,26.855,32.227,38.574,72.754
1621557106.998,45.410,30.273,29.297,39.062,11.719
1621557107.002,45.898,32.227,30.273,37.598,-24.902
1621557107.006,46.387,32.227,27.344,37.598,38.086
1621557107.010,45.898,33.691,25.391,39.551,55.176
1621557107.013,39.062,30.762,28.320,31.738,18.066
1621557107.017,30.762,28.809,31.738,23.926,37.109
1621557107.021,28.809,32.715,33.203,22.949,64.453
1621557107.025,25.879,35.645,26.855,17.578,56.641
1621557107.029,26.367,33.203,27.344,20.996,46.387
1621557107.042,22.461,27.832,27.344,21.484,18.066
1621557107.046,17.090,24.902,25.879,14.648,45.410
1621557107.050,25.391,25.879,27.832,24.414,79.590
1621557107.054,30.273,26.855,22.461,29.785,32.227
1621557107.058,27.344,27.832,21.973,30.273,15.137
1621557107.062,21.484,27.832,28.809,30.762,-8.789
1621557107.066,18.555,20.508,29.785,29.297,-8.789
1621557107.069,17.578,21.973,28.320,30.762,31.738
1621557107.073,14.648,29.297,29.297,29.785,45.898
1621557107.077,12.695,29.785,28.809,24.902,60.547
1621557107.081,10.254,29.785,28.809,23.926,88.867
1621557107.085,17.578,34.180,31.738,30.762,74.219
1621557107.080,19.043,33.691,30.762,31.738,-9.766
1621557107.084,12.207,31.738,29.297,29.297,-11.230
1621557107.088,17.090,30.762,34.180,33.691,40.527
1621557107.092,33.203,32.227,37.598,36.133,-5.859
1621557107.096,44.922,36.133,37.598,33.691,-32.715
1621557107.100,46.875,37.109,35.645,24.902,6.836
1621557107.104,43.945,37.109,33.203,17.578,19.531
1621557107.107,47.363,36.621,35.156,22.461,49.805
1621557107.111,45.898,36.133,32.715,20.508,54.199
1621557107.115,39.062,36.621,30.273,9.277,32.715
1621557107.119,35.156,35.156,28.320,9.277,38.086
1621557107.123,36.133,34.180,30.273,15.625,-22.461
1621557107.136,36.621,35.645,35.156,22.461,0.488
1621557107.140,32.227,36.133,35.645,28.320,103.516
1621557107.144,29.785,35.645,35.645,29.297,58.105
1621557107.148,28.320,32.227,34.180,32.715,30.273
1621557107.152,32.227,33.203,36.133,43.457,58.594
1621557107.156,37.109,36.133,39.062,43.457,-8.789
1621557107.160,30.273,31.738,38.574,29.297,-5.859
1621557107.163,25.391,30.273,39.062,29.297,56.641
1621557107.167,27.344,28.320,36.621,37.109,19.531
1621557107.171,21.484,24.902,34.180,34.668,30.762
1621557107.175,16.602,22.461,33.203,31.738,61.523
1621557107.179,19.531,23.926,31.250,32.227,62.988
1621557107.174,17.090,26.367,32.715,34.180,27.344
1621557107.178,17.578,25.879,36.621,34.180,7.324
1621557107.182,20.996,20.020,39.062,32.715,31.738
1621557107.186,26.855,17.090,42.969,37.598,50.781
1621557107.190,23.438,23.926,38.574,34.668,54.199
1621557107.194,20.020,29.297,33.203,25.879,39.062
1621557107.198,25.391,33.691,34.668,21.484,34.180
1621557107.201,17.578,34.668,37.598,14.160,-5.859
1621557107.205,17.578,33.203,39.062,15.625,34.180
1621557107.209,22.949,31.250,40.039,19.531,35.156
1621557107.213,27.344,33.691,36.133,19.531,-52.246
1621557107.217,35.645,32.715,33.203,29.785,-32.715
1621557107.230,43.457,31.250,32.227,36.133,-21.484
1621557107.234,44.922,31.738,34.180,38.086,-40.527
1621557107.238,45.898,33.691,36.133,39.551,0.977
1621557107.242,46.875,30.273,36.133,36.621,53.223
1621557107.246,41.504,24.902,37.598,32.715,19.531
1621557107.250,36.621,22.461,36.133,34.180,2.441
1621557107.254,38.086,26.855,34.668,35.156,0.000
1621557107.257,34.180,33.203,27.344,31.250,-1.953
1621557107.261,31.738,28.320,23.438,28.809,39.062
1621557107.265,38.574,25.391,33.691,30.762,23.438
1621557107.269,41.992,27.832,41.016,37.598,39.551
1621557107.273,39.062,28.320,38.574,37.109,27.344
1621557107.267,31.250,24.414,39.551,28.809,-12.207
1621557107.271,21.484,21.973,40.039,28.809,18.555
1621557107.275,15.625,23.926,37.598,29.297,18.066
1621557107.279,11.719,25.879,37.598,26.367,31.250
1621557107.283,12.695,24.414,35.156,19.531,31.738
1621557107.287,14.648,20.508,36.621,19.531,15.137
1621557107.291,20.508,22.949,36.133,26.855,14.648
1621557107.294,25.391,25.879,37.598,30.762,16.113
1621557107.298,26.367,23.926,38.574,32.227,24.902
1621557107.302,28.809,24.902,40.039,30.762,61.523
1621557107.306,32.227,29.785,39.551,28.809,73.242
1621557107.310,30.762,33.691,36.621,28.809,43.457
1621557107.324,31.250,30.273,40.527,34.668,47.363
1621557107.328,30.273,27.344,39.551,30.762,37.109
1621557107.332,36.133,27.832,38.574,30.273,28.809
1621557107.336,47.363,30.762,40.039,37.109,1.465
1621557107.340,44.434,32.715,41.504,37.109,6.836
1621557107.344,41.016,30.762,41.992,34.668,40.527
1621557107.348,45.410,32.227,38.574,34.180,21.484
1621557107.351,47.852,34.668,37.109,38.574,9.277
1621557107.355,43.945,33.203,36.621,41.016,-6.348
1621557107.359,42.480,34.180,37.109,38.086,31.250
1621557107.363,38.086,37.598,34.668,26.855,37.598
1621557107.367,29.785,32.227,35.156,23.926,-38.086
1621557107.361,32.227,27.832,41.504,25.879,20.508
1621557107.365,22.461,26.855,42.480,21.973,84.961
1621557107.369,10.254,24.414,41.504,20.996,62.988
1621557107.373,9.766,23.438,42.480,20.020,27.344
1621557107.377,9.277,23.926,42.480,13.672,-16.113
1621557107.381,10.742,20.508,45.410,9.766,-7.324
1621557107.385,12.695,19.043,46.875,5.371,28.809
1621557107.388,19.043,24.414,43.945,7.812,38.086
1621557107.392,20.996,24.902,41.992,11.230,74.707
1621557107.396,21.484,28.809,43.457,11.230,56.152
1621557107.400,25.879,30.273,44.434,16.113,35.645
1621557107.404,27.832,28.320,43.945,21.484,64.941
1621557107.417,34.180,32.227,41.016,24.902,65.430
1621557107.421,36.621,30.762,37.598,23.926,78.125
1621557107.425,30.762,26.855,41.016,22.949,-6.836
1621557107.429,27.832,29.297,41.992,20.996,-5.371
1621557107.433,33.691,30.273,41.016,25.391,59.570
1621557107.437,29.785,28.809,41.992,28.809,29.785
1621557107.441,20.996,30.762,42.480,24.902,18.555
1621557107.444,16.602,25.879,43.457,20.996,42.480
1621557107.448,16.113,25.391,42.969,22.461,22.949
1621557107.452,19.043,29.785,41.016,24.902,21.484
1621557107.456,23.438,33.203,39.062,22.949,22.949
1621557107.460,24.902,36.621,35.645,13.672,-30.762
1621557107.455,27.832,33.203,37.598,13.672,-21.484
1621557107.459,26.367,30.762,41.992,23.438,40.039
1621557107.463,28.809,33.203,42.480,25.391,49.316
1621557107.467,34.180,33.203,44.434,25.391,10.254
1621557107.471,34.668,33.203,41.504,27.344,2.441
1621557107.475,38.574,29.785,41.016,25.879,0.488
1621557107.479,32.227,24.414,46.875,20.508,32.715
1621557107.482,26.855,26.367,43.945,15.625,66.406
1621557107.486,36.621,33.203,40.039,19.531,56.152
1621557107.490,42.480,34.668,41.992,25.391,32.227
1621557107.494,41.016,30.762,42.480,31.738,47.363
1621557107.498,37.598,28.320,41.504,32.715,19.043
1621557107.511,34.180,27.832,40.039,31.250,33.691
1621557107.515,33.691,30.273,39.551,30.273,79.590
1621557107.519,32.227,30.273,39.551,33.691,1.465
1621557107.523,27.344,28.809,40.527,30.273,44.922
1621557107.527,16.113,25.391,37.598,20.020,82.520
1621557107.531,5.859,23.438,37.598,21.484,10.254
1621557107.535,8.789,25.879,39.551,26.367,34.180
1621557107.538,13.672,26.855,36.621,28.320,16.602
1621557107.542,17.578,27.832,39.062,29.297,-1.953
1621557107.546,19.043,28.320,41.016,23.926,38.574
1621557107.550,20.508,27.832,39.062,21.973,66.895
1621557107.554,22.949,29.785,39.551,23.438,50.293
1621557107.549,27.832,27.832,38.574,23.438,14.648
1621557107.553,26.367,25.391,36.133,21.973,31.250
1621557107.557,25.879,28.320,35.156,22.949,71.777
1621557107.561,33.691,29.297,34.180,25.391,52.246
1621557107.565,34.668,31.738,33.203,24.902,-9.277
1621557107.569,32.715,36.621,35.645,24.902,-38.086
1621557107.573,35.156,35.645,39.062,23.438,-14.648
1621557107.576,42.480,34.180,38.574,24.902,8.789
1621557107.580,42.480,34.180,39.551,26.367,22.949
1621557107.584,39.551,33.691,41.504,25.879,29.297
1621557107.588,39.551,35.645,40.527,29.785,60.059
1621557107.592,40.527,35.645,41.992,39.062,73.730
1621557107.605,35.645,28.809,41.992,40.039,41.504
1621557107.609,30.762,25.391,39.551,31.738,88.379
1621557107.613,27.832,25.879,38.086,31.250,82.031
1621557107.617,23.438,31.250,39.062,33.203,20.996
1621557107.621,22.461,31.250,41.992,31.250,25.391
1621557107.625,24.414,27.832,40.039,29.785,-10.254
1621557107.629,25.391,32.227,35.645,21.973,-0.977
1621557107.632,19.531,30.273,35.645,20.020,24.902
1621557107.636,17.090,29.297,37.109,24.414,8.301
1621557107.640,23.438,28.809,36.621,21.484,8.301
1621557107.644,27.344,23.926,34.668,18.066,23.438
1621557107.648,24.414,28.320,33.691,19.043,28.320
1621557107.643,25.879,31.738,31.738,22.461,33.203
1621557107.647,29.297,26.367,33.203,22.949,37.109
1621557107.651,28.320,23.438,35.156,20.508,7.324
1621557107.655,25.879,25.879,33.203,19.043,-16.602
1621557107.659,34.668,29.297,33.203,22.949,-27.832
1621557107.663,40.527,27.832,33.691,28.809,-19.531
1621557107.667,36.621,27.344,37.109,24.414,20.996
1621557107.670,34.180,29.785,36.621,16.602,15.137
1621557107.674,31.738,28.809,32.227,18.066,-0.977
1621557107.678,34.180,28.809,35.645,24.902,9.766
1621557107.682,32.227,29.297,42.480,26.367,32.227
1621557107.686,29.785,27.832,41.992,26.855,42.480
1621557107.699,30.762,31.250,40.527,34.180,4.883
1621557107.703,30.762,30.762,41.992,36.133,25.879
1621557107.707,27.344,28.320,40.527,33.203,41.992
1621557107.711,28.320,32.715,40.039,34.668,-15.625
1621557107.715,33.691,31.250,38.086,34.180,-41.016
1621557107.719,35.645,31.738,38.086,35.156,-4.395
1621557107.723,37.109,31.738,38.086,33.203,26.855
1621557107.726,34.180,27.344,38.574,32.227,-31.250
1621557107.730,25.391,25.879,36.621,35.156,-51.758
1621557107.734,28.809,25.391,37.598,41.016,27.344
1621557107.738,35.645,24.414,40.527,39.062,21.973
1621557107.742,34.668,21.484,40.527,30.273,-8.789
1621557107.736,30.273,25.879,38.574,23.926,65.430
1621557107.740,28.809,27.344,37.109,24.902,83.984
1621557107.744,28.809,26.367,39.062,26.855,65.918
1621557107.748,29.297,29.785,37.109,21.973,17.578
1621557107.752,27.344,28.320,36.621,17.090,-22.949
1621557107.756,25.879,25.879,42.480,18.066,-15.625
1621557107.760,20.020,24.414,41.992,21.973,7.324
1621557107.763,11.719,26.367,40.039,19.531,26.367
1621557107.767,13.672,27.344,40.039,15.137,2.441
1621557107.771,15.625,27.832,40.527,19.043,35.645
1621557107.775,17.578,24.414,39.062,27.832,10.742
1621557107.779,20.020,22.949,36.621,30.762,-7.324
1621557107.792,20.508,25.391,37.109,27.832,27.832
1621557107.796,21.484,25.391,38.574,27.832,51.758
1621557107.800,23.926,25.391,33.203,26.367,24.902
1621557107.804,29.297,25.391,33.203,26.855,-3.418
1621557107.808,34.668,24.902,38.086,35.645,45.410
1621557107.812,32.715,25.879,34.668,36.133,31.738
1621557107.816,33.691,27.344,33.203,33.691,24.902
1621557107.819,33.691,27.832,33.691,31.250,39.062
1621557107.823,25.391,26.367,30.273,22.461,54.688
1621557107.827,24.414,24.902,30.273,18.066,49.316
1621557107.831,22.461,21.973,33.691,19.043,38.086
1621557107.835,17.578,21.484,34.180,21.973,43.945
1621557107.830,22.949,24.414,36.133,23.438,28.809
1621557107.834,22.461,26.367,36.621,20.996,15.625
1621557107.838,20.508,26.367,35.645,19.531,-45.898
1621557107.842,23.926,22.949,38.574,23.926,-22.461
1621557107.846,22.949,25.879,40.527,27.832,4.395
1621557107.850,17.578,29.297,38.086,23.926,-26.367
1621557107.854,11.230,26.855,39.062,23.438,48.340
1621557107.857,13.184,26.855,40.039,27.832,97.656
1621557107.861,12.695,30.762,36.133,25.879,52.246
1621557107.865,9.277,32.715,37.109,24.902,-13.672
1621557107.869,13.672,32.715,38.086,23.438,10.742
1621557107.873,18.066,34.180,31.738,19.043,75.684
1621557107.886,24.902,34.180,29.297,18.066,44.434
1621557107.890,35.156,31.250,28.809,17.090,23.438
1621557107.894,32.715,27.832,31.250,16.113,-8.789
1621557107.898,32.227,30.762,32.227,20.020,25.391
1621557107.902,36.133,34.180,30.762,23.438,54.199
1621557107.906,34.668,33.203,33.203,20.996,0.488
1621557107.910,30.762,33.203,32.715,17.090,7.324
1621557107.913,24.414,33.203,30.762,16.602,-3.418
1621557107.917,22.949,33.203,32.715,20.996,-0.977
1621557107.921,26.367,31.738,31.738,24.902,31.250
1621557107.925,22.949,28.809,30.273,23.438,93.262
1621557107.929,23.926,30.273,29.785,26.855,77.148
1621557107.924,28.320,34.180,26.367,30.273,41.992
1621557107.928,27.832,33.691,24.414,27.344,33.691
1621557107.932,31.250,28.809,27.344,28.320,46.387
1621557107.936,27.832,26.855,29.297,26.367,83.008
1621557107.940,22.461,29.297,29.785,24.414,32.227
1621557107.944,27.344,30.273,33.203,27.832,18.066
1621557107.948,29.297,31.250,35.156,29.297,23.926
1621557107.951,22.949,30.762,32.227,24.902,42.969
1621557107.955,21.973,30.762,31.738,26.367,46.875
1621557107.959,23.438,33.691,32.227,29.297,82.520
1621557107.963,26.855,36.133,30.273,25.391,78.613
1621557107.967,28.809,36.621,33.203,16.602,29.785
1621557107.980,28.320,35.156,36.621,14.160,31.250
1621557107.984,31.738,30.762,37.109,22.949,12.207
1621557107.988,36.133,27.832,37.598,25.879,7.324
1621557107.992,36.621,25.879,34.668,27.832,48.340
1621557107.996,34.180,28.809,32.715,26.855,69.824
1621557108.000,34.180,33.203,36.621,23.926,41.016
1621557108.004,35.645,35.645,37.598,23.438,5.859
1621557108.007,29.297,33.203,36.621,17.578,35.156
1621557108.011,16.602,30.273,38.086,9.766,21.973
1621557108.015,11.719,28.809,42.480,11.230,-45.410
1621557108.019,14.160,26.367,43.945,21.484,0.488
1621557108.023,10.254,26.855,42.480,24.414,20.020
1621557108.017,10.742,29.785,43.457,25.391,8.301
1621557108.021,16.113,30.762,39.062,29.785,0.488
1621557108.025,23.438,24.414,36.133,38.086,18.555
1621557108.029,30.762,22.461,38.086,41.016,-16.602
1621557108.033,29.785,29.297,37.109,34.668,4.883
1621557108.037,34.180,32.715,39.551,29.297,77.148
1621557108.041,40.527,32.715,40.527,29.785,55.176
1621557108.044,41.504,34.668,38.086,27.832,42.480
1621557108.048,43.457,40.527,38.574,22.949,39.551
1621557108.052,47.852,43.457,38.086,21.973,8.789
1621557108.056,42.480,36.621,38.574,20.020,44.434
1621557108.060,41.016,34.180,38.086,19.531,108.887
1621557108.073,44.434,37.109,35.156,23.438,51.758
1621557108.077,40.039,35.156,36.133,23.926,18.066
1621557108.081,39.062,35.156,40.039,26.855,41.504
1621557108.085,38.574,37.109,43.457,36.133,12.695
1621557108.089,37.598,36.621,42.969,38.086,-43.945
1621557108.093,35.156,38.574,40.527,31.738,-6.836
1621557108.097,33.691,38.086,41.992,30.273,24.414
1621557108.100,31.738,36.621,39.551,27.344,-43.945
1621557108.104,28.320,33.691,37.598,31.738,22.949
1621557108.108,21.973,32.715,39.551,34.180,53.223
1621557108.112,20.508,36.133,38.574,31.738,15.625
1621557108.116,24.414,36.133,36.133,36.133,23.438
1621557108.111,32.715,34.668,35.156,40.527,-8.789
1621557108.115,32.715,33.203,36.133,41.016,19.531
1621557108.119,26.367,28.809,32.227,34.668,53.711
1621557108.123,24.414,26.367,32.227,30.762,43.945
1621557108.127,24.902,25.391,34.668,34.180,41.016
1621557108.131,25.391,26.855,36.133,30.762,20.508
1621557108.135,23.926,24.902,35.156,20.020,-9.277
1621557108.138,28.809,28.320,36.621,27.344,5.859
1621557108.142,33.691,37.598,38.574,29.785,8.301
1621557108.146,30.273,35.645,38.086,21.484,7.812
1621557108.150,27.344,32.715,36.133,22.461,13.672
1621557108.154,23.438,27.832,33.691,17.090,44.434
1621557108.167,27.832,25.879,36.621,19.531,21.484
1621557108.171,36.621,32.227,39.551,26.855,42.969
1621557108.175,37.598,30.762,40.039,26.855,51.270
1621557108.179,34.180,29.785,41.016,29.785,11.230
1621557108.183,34.668,34.180,44.434,37.109,38.574
1621557108.187,36.621,36.133,45.898,36.621,48.340
1621557108.191,34.180,37.109,42.969,30.273,4.395
1621557108.194,32.715,33.203,42.480,30.273,19.043
1621557108.198,29.297,31.250,46.875,29.785,37.598
1621557108.202,23.926,35.156,45.898,27.344,-6.836
1621557108.206,21.484,29.297,46.875,22.461,13.184
1621557108.210,19.531,28.809,49.805,17.578,41.016
1621557108.205,14.648,36.133,47.852,18.555,88.379
1621557108.209,16.602,36.621,46.875,25.879,61.035
1621557108.213,24.414,33.691,44.922,27.832,13.672
1621557108.217,22.461,35.156,41.016,24.902,51.758
1621557108.221,22.461,35.156,43.945,28.320,37.109
1621557108.225,33.691,35.156,43.457,36.621,-12.207
1621557108.229,38.574,37.598,41.504,38.086,-1.465
1621557108.232,40.527,36.621,44.434,39.062,61.523
1621557108.236,40.039,36.621,43.457,40.039,9.277
1621557108.240,39.062,38.086,41.016,32.227,5.371
1621557108.244,33.203,37.109,40.039,22.461,44.434
1621557108.248,26.367,36.133,40.039,20.996,65.430
1621557108.261,27.344,34.668,41.016,22.949,54.688
1621557108.265,34.180,36.133,41.504,24.902,12.695
1621557108.269,37.109,37.598,40.039,27.344,17.090
1621557108.273,35.645,28.320,40.039,24.902,18.066
1621557108.277,31.738,24.414,37.598,20.020,1.953
1621557108.281,33.203,30.273,36.133,18.555,11.230
1621557108.285,35.645,35.645,37.598,21.484,52.246
1621557108.288,39.551,39.062,38.574,26.367,81.055
1621557108.292,43.457,34.180,40.527,25.879,71.289
1621557108.296,38.086,30.762,41.504,21.973,57.129
1621557108.300,38.086,32.227,41.016,21.484,-3.906
1621557108.304,37.598,31.250,41.016,20.996,-19.531
1621557108.299,30.762,29.785,41.504,20.020,20.508
1621557108.303,25.391,29.785,40.039,16.113,-4.395
1621557108.307,23.926,29.297,40.039,19.531,-23.438
1621557108.311,22.461,26.367,41.016,31.738,26.367
1621557108.315,20.508,24.902,38.574,34.668,38.086
1621557108.319,16.602,23.926,38.574,29.297,50.293
1621557108.323,17.578,27.832,40.527,33.691,38.086
1621557108.326,22.949,28.320,40.527,32.227,-9.277
1621557108.330,23.438,27.344,42.480,28.320,37.598
1621557108.334,17.578,27.832,38.574,19.531,30.273
1621557108.338,10.742,30.762,34.668,10.254,-5.859
1621557108.342,12.207,30.762,34.180,13.672,-11.230
1621557108.355,9.766,24.902,36.133,15.625,57.129
1621557108.359,3.906,23.438,38.574,7.812,52.734
1621557108.363,4.395,25.391,37.598,6.348,26.367
1621557108.367,7.812,29.785,39.062,15.137,46.875
1621557108.371,8.301,27.832,42.480,22.949,75.684
1621557108.375,6.836,26.855,40.527,25.391,42.969
1621557108.379,14.160,31.738,37.598,27.344,15.625
1621557108.382,24.902,33.691,36.621,34.668,62.500
1621557108.386,32.715,37.109,34.668,37.598,57.617
1621557108.390,34.180,38.086,33.203,33.203,72.266
1621557108.394,32.715,36.133,31.250,29.785,68.359
1621557108.398,38.086,36.133,28.809,33.691,77.148
1621557108.392,44.434,36.621,30.273,39.062,12.207
1621557108.396,39.062,37.598,31.738,36.133,-21.484
1621557108.400,35.645,36.621,35.156,32.715,53.711
1621557108.404,34.180,36.133,34.668,27.344,73.242
1621557108.408,36.621,38.574,28.809,25.879,16.602
1621557108.412,35.645,38.574,26.855,26.367,-43.457
1621557108.416,24.414,34.180,24.902,22.949,67.871
1621557108.419,23.926,35.156,29.785,22.949,108.398
1621557108.423,28.320,36.133,31.738,29.297,37.598
1621557108.427,27.344,31.250,31.738,26.367,14.648
1621557108.431,23.438,33.203,34.668,19.043,-4.883
1621557108.435,18.066,35.645,31.738,13.672,-9.766
1621557108.449,22.949,33.691,30.273,16.113,12.207
1621557108.453,25.391,31.738,30.273,23.926,0.977
1621557108.457,21.973,28.320,30.762,24.902,-4.395
1621557108.461,25.879,31.250,30.762,26.367,24.414
1621557108.465,30.762,33.203,27.344,31.250,64.941
1621557108.469,34.668,28.809,29.297,39.551,76.172
1621557108.473,33.203,29.785,31.738,41.504,47.852
1621557108.476,27.832,27.832,30.273,40.527,-10.742
1621557108.480,27.832,25.879,34.668,33.203,-19.043
1621557108.484,25.391,26.367,37.109,30.762,48.828
1621557108.488,21.484,27.832,33.203,27.344,8.789
1621557108.492,17.578,25.879,31.738,18.066,-24.902
1621557108.486,21.484,23.926,35.645,16.602,-16.113
1621557108.490,30.273,29.785,37.109,19.531,-28.320
1621557108.494,37.598,32.715,34.668,21.484,3.418
1621557108.498,45.410,37.109,32.227,21.484,15.137
1621557108.502,44.434,41.016,30.762,22.461,50.781
1621557108.506,41.504,40.527,30.762,22.461,59.082
1621557108.510,43.457,39.551,34.180,27.344,63.965
1621557108.513,36.621,35.645,37.598,29.785,39.551
1621557108.517,30.762,32.227,40.039,26.855,12.207
1621557108.521,30.762,31.250,41.016,24.902,28.809
1621557108.525,32.227,29.785,39.062,30.762,12.695
1621557108.529,31.250,27.832,38.086,35.645,42.480
1621557108.542,27.344,27.344,40.527,35.156,41.016
1621557108.546,24.902,29.297,45.410,32.715,11.230
1621557108.550,26.367,28.809,46.875,33.203,26.855
1621557108.554,31.250,30.273,45.410,35.645,51.758
1621557108.558,32.715,30.762,45.410,34.180,82.031
1621557108.562,28.809,31.250,43.945,28.809,55.664
1621557108.566,21.973,29.297,39.551,18.066,49.805
1621557108.569,21.484,24.902,41.504,20.508,14.648
1621557108.573,17.578,22.461,41.016,20.996,8.789
1621557108.577,9.766,21.973,41.016,15.137,19.043
1621557108.581,11.230,20.996,43.457,19.043,45.898
1621557108.585,10.742,25.391,39.551,21.973,26.855
1621557108.580,7.812,28.809,37.598,23.438,23.926
1621557108.584,12.207,27.832,37.109,22.461,-9.277
1621557108.588,15.625,29.297,35.156,20.020,-41.992
1621557108.592,21.973,26.367,37.598,24.902,66.895
1621557108.596,26.855,23.926,41.504,34.668,23.438
1621557108.600,24.414,25.879,38.574,35.645,-41.016
1621557108.604,23.926,28.320,34.668,29.785,35.645
1621557108.607,33.691,31.738,37.109,39.062,104.492
1621557108.611,44.922,30.762,37.598,49.316,130.859
1621557108.615,47.852,31.738,34.180,45.410,61.035
1621557108.619,47.363,34.180,35.156,44.434,-7.324
1621557108.623,49.805,34.180,37.598,47.363,30.273
1621557108.636,50.293,34.180,36.133,43.457,-18.066
1621557108.640,39.551,34.180,31.738,33.691,-34.180
1621557108.644,27.832,32.227,30.762,24.902,-25.879
1621557108.648,22.461,33.691,32.227,23.926,-6.836
1621557108.652,20.996,33.203,30.762,25.879,81.543
1621557108.656,18.066,31.738,34.668,24.414,53.223
1621557108.660,7.812,28.809,37.109,15.137,12.207
1621557108.663,0.977,25.391,36.133,11.230,6.836
1621557108.667,5.859,31.250,39.062,19.043,56.152
1621557108.671,8.789,26.367,40.527,22.949,21.973
1621557108.675,13.672,19.531,41.016,23.926,-11.230
1621557108.679,22.949,25.879,41.016,25.879,67.871
1621557108.673,31.250,31.250,39.062,24.414,27.344
1621557108.677,41.504,30.762,36.133,20.508,-18.066
1621557108.681,43.945,35.645,35.645,19.043,85.938
1621557108.685,41.992,40.527,38.086,19.043,60.547
1621557108.689,41.016,37.598,37.598,20.996,-15.137
1621557108.693,40.527,34.180,35.645,20.996,9.277
1621557108.697,34.668,28.320,36.133,15.625,18.066
1621557108.700,27.832,25.879,36.133,15.137,0.488
1621557108.704,31.738,29.297,38.086,22.461,7.324
1621557108.708,35.156,28.320,41.504,32.227,64.941
1621557108.712,32.227,26.367,41.016,35.645,33.691
1621557108.716,32.227,29.297,41.504,34.180,0.000
1621557108.730,27.832,32.715,38.086,31.738,30.273
1621557108.734,27.344,36.621,36.621,35.156,15.137
1621557108.738,22.949,36.621,39.062,36.621,10.254
1621557108.742,20.996,31.250,40.527,39.551,35.156
1621557108.746,23.926,30.762,40.527,37.109,51.270
1621557108.750,23.926,31.738,40.527,26.855,43.457
1621557108.754,26.367,35.156,41.016,20.996,38.086
1621557108.757,24.902,36.133,41.016,15.137,54.688
1621557108.761,20.020,27.344,43.945,16.113,40.527
1621557108.765,16.602,22.461,43.945,24.902,36.621
1621557108.769,16.113,26.855,40.039,32.227,41.992
1621557108.773,18.066,27.832,40.527,31.738,28.320
1621557108.767,22.949,26.367,42.969,34.668,33.203
1621557108.771,27.832,27.344,37.109,34.668,32.715
1621557108.775,32.227,30.273,32.227,34.180,78.613
1621557108.779,32.715,30.762,31.250,27.832,125.977
1621557108.783,28.320,30.762,32.227,12.207,71.777
1621557108.787,27.344,29.785,31.250,7.812,1.953
1621557108.791,28.320,30.762,30.273,11.230,-36.133
1621557108.794,27.832,32.227,31.738,23.926,-45.898
1621557108.798,28.320,34.180,31.738,29.785,-50.781
1621557108.802,32.715,37.109,33.203,30.273,-18.555
1621557108.806,39.062,35.645,34.668,36.621,50.293
1621557108.810,40.527,36.621,35.645,38.574,51.758
1621557108.824,35.645,35.156,33.691,36.621,-43.945
1621557108.828,38.086,35.156,34.668,34.668,-11.719
1621557108.832,40.039,35.645,36.133,31.738,29.297
1621557108.836,33.691,37.109,34.180,28.320,-50.781
1621557108.840,29.297,35.645,30.273,23.438,-25.391
1621557108.844,29.785,36.133,29.785,21.484,54.688
1621557108.848,32.715,36.621,33.691,24.414,19.531
1621557108.851,30.762,33.691,29.785,23.926,-5.859
1621557108.855,34.180,38.086,25.391,22.461,23.438
1621557108.859,35.645,37.598,28.809,19.531,30.273
1621557108.863,32.715,33.203,28.320,14.160,33.691
1621557108.867,34.180,32.227,26.855,14.648,-2.441
1621557108.861,31.250,30.762,28.809,18.066,41.992
1621557108.865,24.414,28.809,29.297,15.625,13.184
1621557108.869,23.438,32.227,31.250,12.695,-34.668
1621557108.873,21.484,33.691,31.250,13.672,-12.695
1621557108.877,22.461,30.762,35.156,20.508,-1.953
1621557108.881,28.320,29.785,36.621,21.484,-9.766
1621557108.885,32.715,28.320,36.621,21.484,-0.977
1621557108.888,40.039,29.297,38.574,20.508,62.012
1621557108.892,40.039,31.738,35.645,12.207,80.566
1621557108.896,38.574,30.762,37.109,15.137,35.645
1621557108.900,29.785,27.832,41.504,19.043,38.574
1621557108.904,22.949,30.273,42.480,22.949,73.242
1621557108.918,25.879,33.203,38.086,33.203,8.789
1621557108.922,30.762,30.273,36.621,36.621,13.184
1621557108.926,28.809,27.344,38.086,34.180,72.266
1621557108.930,28.320,27.832,38.086,35.645,19.531
1621557108.934,28.320,27.344,40.039,36.621,10.254
1621557108.938,24.902,20.996,39.062,39.551,61.035
1621557108.942,27.344,18.555,37.109,41.992,47.363
1621557108.945,28.320,19.531,38.086,42.480,13.672
1621557108.949,26.855,24.902,37.109,36.621,88.867
1621557108.953,30.273,29.785,35.645,33.691,96.191
1621557108.957,29.785,30.273,29.785,29.297,-15.137
1621557108.961,28.320,32.227,28.809,19.531,-26.855
1621557108.955,28.320,30.762,32.227,22.949,37.598
1621557108.959,26.367,28.320,30.273,26.367,46.387
1621557108.963,31.250,26.367,32.227,30.273,42.969
1621557108.967,33.691,26.367,35.645,26.855,27.344
1621557108.971,35.645,28.320,36.133,27.832,10.742
1621557108.975,44.434,27.832,35.645,39.551,-46.387
1621557108.979,46.875,27.344,38.574,37.109,18.555
1621557108.982,42.969,31.250,39.062,31.738,79.102
1621557108.986,40.039,29.785,41.016,29.785,0.488
1621557108.990,41.016,29.785,45.410,29.297,-13.184
1621557108.994,37.598,32.715,46.387,30.762,38.574
1621557108.998,36.133,33.691,48.340,29.297,71.289
1621557109.011,35.156,30.762,46.387,26.855,31.250
1621557109.015,31.250,26.367,43.945,32.715,32.715
1621557109.019,26.855,28.809,44.922,38.086,51.270
1621557109.023,23.438,27.344,43.457,39.062,37.598
1621557109.027,20.996,21.973,38.574,38.574,13.672
1621557109.031,24.902,22.461,38.574,37.598,40.527
1621557109.035,35.156,28.320,40.039,45.410,84.473
1621557109.038,36.133,32.227,40.527,44.922,46.387
1621557109.042,31.250,32.227,40.039,41.016,-3.906
1621557109.046,25.391,32.227,35.156,34.668,-0.488
1621557109.050,25.391,30.762,33.691,30.273,14.648
1621557109.054,22.949,31.250,32.715,30.762,63.477
1621557109.050,16.602,33.203,30.762,25.391,42.480
1621557109.054,19.531,31.738,34.668,20.996,18.066
1621557109.058,22.949,29.785,38.574,25.879,34.180
1621557109.062,22.949,25.879,36.621,26.855,30.273
1621557109.066,26.855,24.902,35.645,24.414,37.109
1621557109.070,33.203,29.785,36.133,23.926,104.980
1621557109.074,40.039,36.133,34.668,27.832,107.910
1621557109.077,52.734,35.156,34.668,38.574,60.059
1621557109.081,56.152,30.762,34.668,40.527,34.668
1621557109.085,48.340,36.133,28.320,32.715,22.949
1621557109.089,50.293,40.039,24.414,32.715,36.133
1621557109.093,43.457,35.645,27.832,29.785,95.215
1621557109.105,29.297,32.715,27.344,24.902,56.152
1621557109.109,29.785,28.809,26.855,20.020,0.977
1621557109.113,27.344,27.344,30.762,18.555,42.969
1621557109.117,27.344,26.855,34.180,24.414,81.543
1621557109.121,33.203,27.344,32.715,30.273,99.609
1621557109.125,31.250,26.367,30.273,31.738,37.598
1621557109.129,25.879,23.926,34.668,29.785,39.551
1621557109.132,25.879,26.367,38.574,35.645,38.086
1621557109.136,20.020,29.785,35.156,38.086,-2.930
1621557109.140,14.648,28.809,32.715,31.738,-25.879
1621557109.144,18.066,24.902,34.180,31.738,49.805
1621557109.148,18.555,24.414,31.250,30.762,49.316
1621557109.142,22.461,25.391,26.855,32.227,-64.453
1621557109.146,27.344,25.391,28.320,34.180,-27.832
1621557109.150,24.902,25.879,31.250,30.273,32.715
1621557109.154,27.344,27.344,32.715,29.785,38.086
1621557109.158,33.203,27.832,32.715,30.273,41.992
1621557109.162,30.762,24.902,32.227,26.855,23.438
1621557109.166,20.508,19.531,33.691,22.949,31.250
1621557109.169,20.020,22.461,31.250,19.043,28.809
1621557109.173,28.320,28.320,35.156,20.508,27.832
1621557109.177,34.668,33.203,39.551,26.367,44.922
1621557109.181,36.621,35.156,37.598,18.066,64.453
1621557109.185,37.598,35.645,37.109,15.137,37.598
1621557109.199,37.109,33.691,39.062,24.902,38.574
1621557109.203,38.086,31.250,41.504,27.832,12.695
1621557109.207,38.574,34.180,45.410,25.879,25.391
1621557109.211,38.574,35.156,44.922,17.578,72.754
1621557109.215,30.762,30.762,40.527,13.184,-2.930
1621557109.219,21.973,27.344,41.992,12.207,-4.883
1621557109.223,22.461,26.855,44.922,14.160,-14.160
1621557109.226,20.020,25.391,44.434,24.414,0.000
1621557109.230,20.020,29.297,42.480,26.367,50.781
1621557109.234,21.484,32.715,42.480,24.902,49.316
1621557109.238,24.902,32.227,44.434,33.203,-5.371
1621557109.242,26.855,34.180,40.039,32.227,-29.785
1621557109.236,28.320,31.738,35.645,27.344,21.484
1621557109.240,35.645,30.762,36.133,35.156,39.062
1621557109.244,37.109,32.227,35.645,43.945,34.180
1621557109.248,37.598,30.273,34.668,41.504,-2.441
1621557109.252,41.992,25.879,37.109,42.480,-4.883
1621557109.256,46.387,28.320,39.062,49.316,21.484
1621557109.260,45.410,32.227,40.039,48.340,5.371
1621557109.263,34.668,32.227,35.156,39.062,7.324
1621557109.267,31.738,26.367,33.691,33.691,-26.367
1621557109.271,30.762,26.367,34.668,31.250,11.719
1621557109.275,29.297,30.273,32.227,26.855,81.543
1621557109.279,21.484,31.738,29.785,18.555,47.852
1621557109.292,10.254,32.715,28.320,9.277,24.902
1621557109.296,12.695,29.785,28.809,6.836,115.723
1621557109.300,20.508,34.180,32.227,8.789,113.281
1621557109.304,28.320,37.598,35.156,13.184,3.418
1621557109.308,31.738,33.203,32.227,16.113,43.457
1621557109.312,33.691,32.715,25.879,10.742,41.016
1621557109.316,38.574,31.738,26.367,7.812,-4.395
1621557109.319,44.922,27.832,28.320,11.719,-7.324
1621557109.323,47.852,26.367,32.227,16.113,-19.043
1621557109.327,41.504,25.879,35.645,18.555,31.250
1621557109.331,35.645,30.273,35.645,17.578,37.598
1621557109.335,38.086,35.156,41.016,20.020,54.199
1621557109.330,32.227,35.645,42.480,18.066,57.129
1621557109.334,22.949,32.227,38.574,16.602,-16.113
1621557109.338,23.438,32.227,37.109,24.414,-6.836
1621557109.342,27.344,33.691,39.551,32.227,36.133
1621557109.346,24.902,32.715,38.574,32.715,41.992
1621557109.350,20.020,32.715,34.668,26.367,24.902
1621557109.354,15.625,30.273,34.668,29.297,21.973
1621557109.357,15.625,28.809,35.156,36.133,-4.395
1621557109.361,10.254,26.367,32.227,33.203,-12.207
1621557109.365,1.465,18.555,30.762,26.367,-6.348
1621557109.369,5.859,22.461,37.109,32.227,45.410
1621557109.373,16.602,24.414,38.574,45.410,97.168
1621557109.386,23.926,24.414,33.203,43.457,105.469
1621557109.390,21.484,26.855,30.762,30.273,88.379
1621557109.394,24.414,30.273,31.250,27.344,35.156
1621557109.398,29.785,29.785,32.715,26.367,-1.953
1621557109.402,32.227,25.879,35.645,22.949,41.504
1621557109.406,44.922,26.855,37.109,26.367,71.289
1621557109.410,53.223,31.250,34.668,24.414,6.348
1621557109.413,54.688,34.668,33.203,23.438,-24.414
1621557109.417,55.664,35.156,35.156,29.785,35.645
1621557109.421,59.082,38.086,35.645,36.133,54.688
1621557109.425,55.176,41.504,31.250,30.273,10.254
1621557109.429,41.504,38.086,25.391,15.137,12.207
1621557109.424,36.133,33.691,30.273,11.719,28.320
1621557109.428,27.832,28.320,32.715,8.789,15.625
1621557109.432,15.137,28.809,32.715,-0.488,4.883
1621557109.436,6.836,30.273,33.691,-5.859,56.152
1621557109.440,7.324,32.715,35.645,0.977,40.039
1621557109.444,14.160,34.668,39.062,13.672,-35.156
1621557109.448,17.090,30.273,38.086,20.996,8.789
1621557109.451,14.160,26.367,37.109,25.879,47.363
1621557109.455,17.090,26.855,37.109,37.109,29.785
1621557109.459,22.461,30.273,36.621,47.852,0.977
1621557109.463,21.973,28.809,35.156,46.387,-4.883
1621557109.467,19.531,25.391,38.086,45.410,-7.324
1621557109.480,19.531,23.438,39.551,45.898,27.344
1621557109.484,24.902,26.855,40.039,45.410,53.711
1621557109.488,27.832,28.809,37.598,46.387,39.062
1621557109.492,23.926,24.902,31.738,43.945,81.543
1621557109.496,24.414,20.508,31.250,40.527,60.059
1621557109.500,33.203,23.926,31.250,38.086,16.602
1621557109.504,34.668,28.320,30.762,37.598,-14.648
1621557109.507,31.738,30.273,33.203,34.668,4.395
1621557109.511,31.738,30.762,30.273,28.320,49.805
1621557109.515,27.344,27.344,29.297,24.414,20.508
1621557109.519,27.832,27.344,32.227,23.438,-16.602
1621557109.523,29.297,30.762,33.203,22.461,-30.273
1621557109.517,28.809,29.785,32.715,21.484,-5.859
1621557109.521,28.809,29.785,32.715,20.020,29.785
1621557109.525,27.344,31.250,33.203,18.555,62.988
1621557109.529,28.320,31.250,32.227,18.555,70.312
1621557109.533,23.438,30.273,30.762,12.695,8.789
1621557109.537,22.949,30.762,30.273,12.207,-7.812
1621557109.541,25.391,24.414,25.879,16.113,38.086
1621557109.544,24.902,22.949,25.391,20.508,101.074
1621557109.548,22.949,27.832,23.438,21.973,48.828
1621557109.552,23.926,26.367,20.996,28.320,-12.207
1621557109.556,30.273,23.926,23.926,36.133,28.809
1621557109.560,31.738,24.902,25.879,34.668,21.484
1621557109.573,27.832,26.367,28.320,33.203,-12.207
1621557109.577,28.809,27.832,28.809,29.297,-23.926
1621557109.581,21.973,29.785,24.414,25.391,8.789
1621557109.585,16.602,26.855,23.926,21.973,8.789
1621557109.589,15.625,22.949,26.855,19.043,7.324
1621557109.593,10.742,23.438,25.879,15.137,102.539
1621557109.597,12.207,20.020,27.344,15.625,37.109
1621557109.600,13.184,16.113,27.832,20.508,-12.695
1621557109.604,14.160,19.531,29.297,23.438,65.430
1621557109.608,12.207,23.438,34.668,24.414,51.270
1621557109.612,10.742,24.414,31.738,23.438,5.371
1621557109.616,15.625,24.902,23.926,27.344,-20.508
1621557109.611,21.973,25.391,24.902,27.344,-9.766
1621557109.615,26.367,24.902,26.367,19.043,20.508
1621557109.619,29.297,27.344,22.461,16.113,-6.348
1621557109.623,30.762,27.832,21.484,17.578,-22.461
1621557109.627,35.645,27.832,22.949,19.043,18.066
1621557109.631,40.039,24.414,25.391,18.555,23.926
1621557109.635,38.574,23.438,26.855,17.578,41.992
1621557109.638,39.551,22.949,26.367,20.996,93.262
1621557109.642,41.016,21.973,26.855,19.531,51.270
1621557109.646,43.457,28.320,32.715,17.090,-15.137
1621557109.650,41.016,27.344,33.203,19.531,-8.301
1621557109.654,39.062,23.926,32.715,21.484,-11.719
1621557109.667,39.062,26.367,35.645,31.738,-26.367
1621557109.671,37.598,26.367,39.062,40.527,2.930
1621557109.675,30.762,23.926,36.621,36.621,26.855
1621557109.679,25.391,23.438,35.156,35.645,-0.977
1621557109.683,23.926,23.926,36.621,36.621,-13.184
1621557109.687,13.672,20.020,38.086,32.715,8.301
1621557109.691,12.695,17.578,40.039,35.156,46.387
1621557109.694,13.184,14.648,39.062,32.227,3.418
1621557109.698,10.742,18.066,41.016,30.273,-7.324
1621557109.702,16.113,24.902,43.945,36.133,105.957
1621557109.706,22.461,26.367,40.527,32.227,106.445
1621557109.710,25.391,27.344,38.086,22.949,50.293
1621557109.705,25.879,28.320,38.574,26.855,66.895
1621557109.709,33.691,29.297,34.668,30.273,53.223
1621557109.713,33.203,28.809,31.250,22.461,48.828
1621557109.717,24.414,25.879,35.645,17.578,10.742
1621557109.721,21.484,22.949,38.086,16.602,2.441
1621557109.725,21.484,23.926,38.574,18.555,27.832
1621557109.729,22.949,21.973,41.016,17.090,-22.461
1621557109.732,20.996,19.531,38.574,7.324,-48.340
1621557109.736,25.391,22.461,36.621,11.230,-63.965
1621557109.740,35.645,26.855,38.086,20.020,-19.531
1621557109.744,40.527,30.273,38.086,21.973,20.508
1621557109.748,38.574,30.762,35.645,21.484,-20.996
1621557109.762,36.133,30.273,35.645,20.020,-8.789
1621557109.766,30.273,28.320,34.180,20.996,70.801
1621557109.770,30.273,26.367,33.691,31.738,34.668
1621557109.774,32.715,27.344,33.691,37.109,58.594
1621557109.778,24.414,31.250,32.227,30.762,38.574
1621557109.782,20.508,28.320,30.273,29.785,-13.672
1621557109.786,19.043,24.902,28.809,29.297,70.801
1621557109.789,11.719,25.879,29.785,20.508,61.523
1621557109.793,10.254,27.832,29.785,19.043,48.828
1621557109.797,15.137,29.297,28.320,21.973,91.797
1621557109.801,26.367,27.344,30.273,24.902,66.895
1621557109.805,27.832,26.367,31.250,27.832,26.855
1621557109.799,23.926,24.414,34.180,24.902,-5.371
1621557109.803,23.926,22.949,35.645,26.367,34.668
1621557109.807,23.438,27.344,33.203,29.297,-12.695
1621557109.811,21.973,28.809,37.109,29.785,-60.547
1621557109.815,20.508,25.879,38.086,29.785,30.762
1621557109.819,25.391,25.391,36.621,29.297,31.738
1621557109.823,25.391,21.973,31.738,20.508,58.594
1621557109.826,23.926,21.484,28.809,22.949,116.211
1621557109.830,27.832,23.926,30.762,24.902,73.730
1621557109.834,26.855,24.902,33.691,16.113,29.785
1621557109.838,28.320,24.414,37.598,16.602,-9.766
1621557109.842,30.273,23.438,39.551,20.020,-13.672
1621557109.855,33.203,26.855,36.621,21.484,-13.672
1621557109.859,37.598,28.809,35.156,19.531,-27.344
1621557109.863,38.086,28.809,37.598,18.555,17.090
1621557109.867,36.621,28.320,38.574,29.297,48.340
1621557109.871,32.227,28.809,39.062,35.645,16.113
1621557109.875,29.785,31.250,40.039,33.691,-18.066
1621557109.879,29.297,31.250,41.016,31.738,-0.977
1621557109.882,26.367,28.809,38.086,32.715,41.504
1621557109.886,20.508,25.879,35.156,34.180,85.938
1621557109.890,16.113,24.414,35.645,30.762,87.402
1621557109.894,14.648,24.902,37.109,30.273,64.453
1621557109.898,22.461,24.414,39.551,32.715,18.555
1621557109.892,21.973,25.879,39.551,30.762,43.457
1621557109.896,19.531,26.367,39.062,33.691,58.594
1621557109.900,23.438,25.391,40.527,34.180,1.953
1621557109.904,26.855,26.855,38.574,32.227,48.340
1621557109.908,31.738,25.879,39.551,31.250,54.688
1621557109.912,33.691,23.926,42.480,30.273,2.930
1621557109.916,33.203,24.902,41.016,26.855,25.391
1621557109.919,33.691,22.461,39.551,28.320,60.059
1621557109.923,35.645,23.438,40.039,35.156,55.664
1621557109.927,31.250,28.809,40.039,32.227,34.180
1621557109.931,26.855,30.273,38.574,26.367,18.555
1621557109.935,25.879,32.715,36.621,20.996,19.043
1621557109.949,26.855,29.785,35.156,19.043,41.016
1621557109.953,32.227,27.344,35.645,18.555,43.945
1621557109.957,33.203,31.250,36.621,19.043,66.406
1621557109.961,35.645,29.297,39.551,20.508,67.871
1621557109.965,38.574,28.809,44.922,25.879,38.086
1621557109.969,35.156,32.715,40.527,29.297,96.680
1621557109.973,36.621,28.320,38.086,29.785,62.012
1621557109.976,35.645,28.809,43.945,36.133,-17.090
1621557109.980,31.250,33.691,40.039,34.668,-8.789
1621557109.984,27.832,31.250,33.203,37.598,16.113
1621557109.988,27.344,30.273,36.621,44.922,22.949
