timestamps,TP9,AF7,AF8,TP10,Right AUX
1621556150.817,-0.977,34.180,39.062,-4.395,63.965
1621556150.821,10.742,33.203,38.574,1.465,70.801
1621556150.825,14.648,36.621,41.016,2.441,48.828
1621556150.829,14.160,39.551,42.480,-4.395,19.531
1621556150.833,17.578,38.086,41.016,-4.395,-20.020
1621556150.837,19.043,35.156,42.969,0.488,7.812
1621556150.841,14.648,32.227,45.410,-0.488,17.090
1621556150.844,20.020,31.738,44.434,-5.371,4.883
1621556150.848,11.230,31.738,43.945,0.977,9.766
1621556150.852,-3.906,29.785,45.410,11.719,-3.418
1621556150.856,8.789,29.785,42.969,13.184,-12.695
1621556150.860,23.926,33.203,42.480,10.742,33.203
1621556150.862,34.180,38.574,47.852,45.898,-14.648
1621556150.865,27.344,41.016,48.828,45.898,37.598
1621556150.869,23.438,38.086,47.852,36.133,-3.418
1621556150.873,30.273,39.551,48.828,38.086,-5.859
1621556150.877,35.645,43.457,48.828,45.410,7.812
1621556150.881,31.250,41.504,47.363,30.762,41.504
1621556150.893,23.438,38.086,44.922,15.625,28.809
1621556150.897,15.137,35.645,42.969,7.812,10.742
1621556150.901,8.789,33.691,40.527,4.883,22.949
1621556150.905,12.695,35.156,40.527,12.695,41.016
1621556150.909,16.113,37.598,44.434,14.648,20.508
1621556150.913,7.324,35.645,46.875,9.766,-3.906
1621556150.917,11.719,34.180,44.922,15.625,-4.883
1621556150.920,20.508,33.691,42.480,21.973,-24.414
1621556150.924,18.066,32.227,43.457,21.973,-8.789
1621556150.928,23.926,33.691,44.922,18.066,-9.766
1621556150.932,25.879,36.621,46.387,19.531,54.199
1621556150.936,26.855,36.133,42.969,30.273,66.895
1621556150.949,32.227,35.645,40.527,27.832,34.180
1621556150.953,37.109,36.621,40.039,16.113,79.590
1621556150.957,34.668,38.086,38.086,17.090,78.125
1621556150.961,27.832,39.551,38.086,24.902,3.418
1621556150.965,25.879,33.203,38.086,23.438,12.207
1621556150.969,22.461,32.227,37.109,15.625,-3.418
1621556150.973,24.902,38.086,37.109,16.113,2.930
1621556150.976,28.809,37.598,34.668,25.391,52.734
1621556150.980,31.738,37.109,26.367,32.227,43.457
1621556150.984,22.949,35.645,35.156,32.227,37.598
1621556150.988,-2.930,31.250,45.898,18.066,25.879
1621556150.992,-7.812,24.902,47.363,17.090,8.789
1621556150.968,-6.836,20.020,49.316,21.484,0.977
1621556150.972,-8.789,23.438,47.363,5.371,26.855
1621556150.976,-10.254,23.926,44.434,-3.906,31.738
1621556150.980,-22.461,20.508,40.527,-7.812,-15.137
1621556150.984,-11.230,20.996,42.480,0.977,-32.715
1621556150.988,4.883,27.344,44.434,14.160,-24.414
1621556150.992,8.301,31.738,43.457,9.766,23.438
1621556150.995,11.719,29.785,42.969,9.766,55.176
1621556150.999,18.555,31.738,45.410,24.414,-4.395
1621556151.003,26.855,31.738,45.898,28.809,1.465
1621556151.007,15.625,30.273,44.922,19.043,-29.297
1621556151.011,10.742,32.715,44.922,18.555,-13.184
1621556151.024,22.949,33.691,42.969,24.414,23.926
1621556151.028,28.320,31.250,44.434,26.855,63.477
1621556151.032,28.320,26.855,44.434,20.020,82.520
1621556151.036,27.344,23.926,42.969,19.531,-7.324
1621556151.040,38.574,27.832,41.992,24.902,-35.645
1621556151.044,38.086,32.227,41.992,28.809,15.625
1621556151.048,24.414,32.227,42.969,30.273,54.199
1621556151.051,18.555,30.762,44.922,29.785,46.387
1621556151.055,21.973,30.762,43.945,33.691,81.055
1621556151.059,31.250,34.180,40.527,40.039,38.086
1621556151.063,40.039,35.645,41.504,41.992,-1.465
1621556151.067,34.180,34.668,38.086,39.551,57.129
1621556151.079,19.531,34.668,33.691,36.621,24.414
1621556151.083,18.066,35.156,35.156,40.527,55.664
1621556151.087,19.043,36.133,37.598,41.016,66.895
1621556151.091,13.184,36.133,38.574,28.809,62.988
1621556151.095,11.719,35.156,37.598,25.391,82.520
1621556151.099,16.602,35.645,39.062,29.785,82.031
1621556151.103,18.066,33.691,38.574,23.438,73.242
1621556151.106,18.066,32.715,36.133,14.160,27.832
1621556151.110,22.949,34.180,35.156,14.160,32.715
1621556151.114,24.414,35.156,33.203,14.160,-14.160
1621556151.118,26.367,34.668,33.203,13.672,-29.297
1621556151.122,26.855,36.621,34.180,12.207,18.555
1621556151.100,11.230,35.156,36.133,9.766,20.508
1621556151.104,15.137,33.691,37.598,13.184,-49.805
1621556151.108,27.344,32.227,35.645,13.672,-15.625
1621556151.112,16.113,30.273,35.156,12.207,17.578
1621556151.116,7.324,33.203,37.109,7.324,6.348
1621556151.120,7.812,33.691,35.156,3.906,-20.996
1621556151.124,10.254,32.715,33.203,10.742,-21.973
1621556151.127,15.137,32.227,34.180,11.719,-1.465
1621556151.131,19.531,33.203,37.109,18.066,28.320
1621556151.135,15.625,32.715,41.016,22.461,14.160
1621556151.139,17.090,31.250,39.551,23.438,26.855
1621556151.143,22.949,33.203,37.109,30.273,98.633
1621556151.155,17.578,34.180,38.086,30.273,97.168
1621556151.159,18.555,34.668,38.574,25.391,103.027
1621556151.163,25.391,34.668,37.109,27.832,51.758
1621556151.167,31.250,35.645,38.086,29.785,22.949
1621556151.171,35.645,37.109,40.039,27.832,48.828
1621556151.175,39.062,37.598,31.738,20.020,36.621
1621556151.179,49.316,36.621,26.855,26.855,-33.691
1621556151.182,39.062,33.203,38.574,34.668,-42.969
1621556151.186,21.484,31.738,43.945,16.113,-17.578
1621556151.190,11.230,30.273,44.434,5.371,-4.395
1621556151.194,8.789,26.855,46.875,10.742,-25.879
1621556151.198,20.996,22.461,48.828,19.043,5.371
1621556151.211,14.160,20.020,50.293,12.207,50.293
1621556151.215,-2.441,23.926,48.828,-0.488,56.152
1621556151.219,3.418,26.855,42.969,-5.371,40.527
1621556151.223,4.883,25.391,40.527,2.930,45.898
1621556151.227,5.859,24.902,41.016,9.766,-0.488
1621556151.231,7.324,25.879,39.062,-0.488,4.395
1621556151.235,6.836,21.973,40.527,-6.836,38.086
1621556151.238,-2.441,21.484,43.945,1.465,-6.348
1621556151.242,-14.160,20.996,43.457,12.207,19.043
1621556151.246,-14.160,19.531,42.480,13.184,26.855
1621556151.250,-4.883,23.926,43.457,7.324,-12.695
1621556151.254,1.953,21.484,46.387,12.695,-30.762
1621556151.249,1.465,20.020,47.363,21.973,-3.418
1621556151.253,8.789,20.996,42.480,20.508,-7.812
1621556151.257,19.531,20.508,38.086,11.230,-18.066
1621556151.261,22.949,21.973,37.109,6.836,-17.578
1621556151.265,23.438,21.484,34.668,13.672,-8.789
1621556151.269,23.926,24.414,39.062,22.461,7.812
1621556151.273,20.508,27.832,41.016,20.020,22.461
1621556151.276,26.855,30.762,39.551,12.207,51.270
1621556151.280,29.297,32.715,41.504,17.090,-1.465
1621556151.284,25.879,31.738,43.457,27.832,46.387
1621556151.288,34.668,30.762,43.457,26.367,54.688
1621556151.292,34.668,31.250,41.992,18.066,26.855
1621556151.305,28.320,29.785,42.969,21.484,48.340
1621556151.309,29.785,28.809,44.922,28.809,-5.859
1621556151.313,37.598,32.227,44.922,24.414,-40.039
1621556151.317,34.668,30.762,44.434,18.555,20.508
1621556151.321,23.926,30.762,44.922,15.625,41.016
1621556151.325,24.414,32.227,45.410,20.020,47.363
1621556151.329,18.066,28.809,48.340,27.344,18.555
1621556151.332,12.695,28.809,50.293,27.832,-40.039
1621556151.336,11.719,31.250,47.852,23.438,-20.996
1621556151.340,11.230,32.227,46.875,23.438,23.926
1621556151.344,16.113,34.668,52.246,29.297,22.949
1621556151.348,24.414,38.086,55.176,23.438,-6.836
1621556151.361,24.902,38.086,55.664,21.484,9.766
1621556151.365,21.973,34.668,54.688,23.438,34.668
1621556151.369,24.414,35.156,53.711,19.043,29.785
1621556151.373,26.855,29.297,52.246,18.555,-13.672
1621556151.377,25.879,26.367,48.340,16.113,7.324
1621556151.381,27.344,34.668,50.781,20.996,5.371
1621556151.385,24.902,35.645,52.246,26.855,-13.672
1621556151.388,20.996,36.133,50.781,26.855,27.344
1621556151.392,20.020,37.598,51.270,23.926,41.992
1621556151.396,18.555,38.574,49.805,22.461,2.930
1621556151.400,17.578,36.621,51.758,30.273,-19.531
1621556151.404,22.461,33.691,51.270,35.156,46.387
1621556151.417,24.414,35.156,50.293,28.320,-14.160
1621556151.421,19.531,34.668,51.270,14.648,-10.254
1621556151.425,13.672,33.691,51.270,15.625,48.828
1621556151.429,16.602,33.203,49.316,22.461,23.438
1621556151.433,17.578,29.785,48.340,23.926,17.090
1621556151.437,18.555,33.691,46.875,18.555,29.785
1621556151.441,21.973,36.133,43.457,18.555,24.414
1621556151.444,17.578,31.738,39.062,17.578,26.367
1621556151.448,12.695,32.227,38.086,10.742,31.738
1621556151.452,15.137,35.156,41.992,5.371,-28.809
1621556151.456,20.996,33.203,39.551,7.324,5.859
1621556151.460,25.391,33.691,38.574,14.160,28.320
1621556151.511,20.020,35.156,39.062,13.672,47.363
1621556151.515,9.277,32.715,36.133,9.277,73.242
1621556151.519,4.883,32.715,37.598,16.602,59.570
1621556151.523,21.484,31.738,38.574,23.438,54.688
1621556151.527,28.809,32.227,39.551,27.344,20.508
1621556151.531,10.254,30.762,38.574,28.320,46.875
1621556151.535,6.836,30.273,38.086,33.203,81.055
1621556151.538,18.555,32.227,39.551,34.180,38.086
1621556151.542,26.367,36.621,40.527,35.645,-6.348
1621556151.546,18.066,34.668,39.062,32.227,1.465
1621556151.550,13.184,30.762,36.133,24.414,-0.977
1621556151.554,16.602,36.133,34.668,28.809,41.992
1621556151.531,23.926,40.039,32.227,32.227,57.129
1621556151.535,27.832,38.574,29.297,28.809,15.137
1621556151.539,26.855,35.645,27.832,23.926,14.648
1621556151.543,21.973,35.156,26.367,22.949,8.301
1621556151.547,23.438,37.598,26.367,27.344,37.109
1621556151.551,27.832,40.039,30.273,27.832,73.730
1621556151.555,20.020,41.016,31.250,18.066,51.270
1621556151.558,20.020,38.574,30.273,11.230,21.484
1621556151.562,24.902,37.109,28.809,17.090,20.508
1621556151.566,25.879,37.598,27.344,20.508,10.742
1621556151.570,28.809,41.992,30.273,18.555,-8.789
1621556151.574,26.855,44.434,33.691,16.113,-16.113
1621556151.623,23.926,41.504,32.227,19.043,-3.906
1621556151.627,29.297,42.480,31.738,20.020,21.484
1621556151.631,39.062,42.480,33.691,15.625,2.441
1621556151.635,42.480,39.551,33.203,13.184,31.738
1621556151.639,39.062,36.621,31.738,15.625,27.832
1621556151.643,36.133,36.133,33.691,27.344,-20.508
1621556151.647,24.902,38.574,36.133,35.645,35.156
1621556151.650,12.695,37.598,36.621,34.668,39.551
1621556151.654,15.625,38.574,41.992,39.062,19.043
1621556151.658,19.531,35.645,41.992,44.434,3.418
1621556151.662,17.090,32.715,41.504,45.410,21.973
1621556151.666,7.324,37.109,39.062,35.645,28.809
1621556151.660,1.465,36.621,34.668,28.809,32.227
1621556151.664,12.695,35.156,31.738,29.785,98.633
1621556151.668,21.973,35.645,33.203,26.367,87.402
1621556151.672,21.484,38.574,38.574,24.414,57.617
1621556151.676,21.484,38.574,37.109,19.531,66.895
1621556151.680,26.367,38.086,34.180,20.508,28.809
1621556151.684,26.855,39.062,33.691,27.832,26.367
1621556151.687,19.043,36.621,31.738,25.879,5.859
1621556151.691,10.742,35.156,29.297,15.625,16.602
1621556151.695,12.695,37.598,26.367,7.812,59.082
1621556151.699,24.414,36.133,29.297,15.625,58.594
1621556151.703,26.855,31.250,29.297,17.090,19.043
1621556151.681,24.414,34.668,26.367,1.465,-9.766
1621556151.685,37.598,43.945,25.879,2.441,1.465
1621556151.689,51.270,44.922,25.879,29.785,29.785
1621556151.693,25.879,37.598,37.109,27.344,18.555
1621556151.697,-12.207,32.715,37.598,-12.207,30.762
1621556151.701,-7.812,30.273,37.109,-15.137,10.742
1621556151.705,13.184,21.484,49.316,-5.859,-22.461
1621556151.708,8.789,14.648,53.223,-18.555,8.789
1621556151.712,0.488,16.602,52.246,-32.715,16.602
1621556151.716,-15.625,11.230,54.688,-40.527,-24.902
1621556151.720,-46.875,5.859,53.223,-42.969,-43.457
1621556151.724,-55.176,6.836,51.758,-40.039,14.648
1621556151.773,-60.547,2.930,54.688,-40.527,65.918
1621556151.777,-64.941,-2.930,54.688,-48.828,17.090
1621556151.781,-55.176,1.953,54.199,-43.945,-41.992
1621556151.785,-37.109,9.766,54.688,-24.414,5.371
1621556151.789,-20.996,14.648,52.246,-13.672,42.480
1621556151.793,-14.648,18.555,52.246,-10.254,68.359
1621556151.797,-20.996,18.555,54.199,-2.441,45.898
1621556151.800,-24.414,13.672,52.734,8.789,-67.871
1621556151.804,-14.160,12.695,49.316,17.090,-20.508
1621556151.808,-6.348,16.602,47.852,17.090,33.203
1621556151.812,-6.836,16.602,43.945,16.113,-26.855
1621556151.816,-3.906,17.578,40.527,17.578,-6.348
1621556151.794,3.418,21.973,43.457,24.902,29.785
1621556151.798,5.371,24.414,45.898,26.367,79.102
1621556151.802,8.789,21.484,42.480,20.020,63.965
1621556151.806,20.996,23.926,44.434,25.879,19.531
1621556151.810,35.156,24.902,51.270,34.668,11.719
1621556151.814,40.039,25.879,53.711,33.203,-35.645
1621556151.818,36.133,29.785,51.270,31.738,-8.789
1621556151.821,32.715,25.391,51.270,27.344,25.879
1621556151.825,44.434,29.297,50.293,20.508,26.367
1621556151.829,51.270,33.203,50.781,24.414,24.902
1621556151.833,42.480,34.668,50.293,29.297,-7.812
1621556151.837,32.227,37.109,45.898,25.879,-48.828
1621556151.849,33.203,36.133,48.340,30.762,0.000
1621556151.853,27.832,34.180,56.152,38.574,16.113
1621556151.857,19.531,35.645,55.176,32.227,-9.277
1621556151.861,18.555,38.086,52.734,18.555,14.160
1621556151.865,13.184,31.738,53.711,15.625,23.926
1621556151.869,9.766,28.320,51.758,26.855,-1.953
1621556151.873,10.254,31.250,53.711,30.273,-48.828
1621556151.876,11.719,32.715,53.223,22.949,-5.859
1621556151.880,13.672,29.785,50.781,24.414,67.871
1621556151.884,20.996,23.926,51.270,30.762,-13.672
1621556151.888,20.020,21.973,54.199,31.250,5.859
1621556151.892,15.625,24.902,60.059,31.738,99.609
1621556151.887,22.949,28.809,59.570,29.785,61.035
1621556151.891,31.250,29.297,57.129,31.738,30.273
1621556151.895,34.180,32.227,56.152,32.715,9.766
1621556151.899,36.133,34.668,56.641,34.180,-10.742
1621556151.903,32.227,33.203,54.688,34.180,-4.883
1621556151.907,27.344,35.156,49.316,32.715,23.438
1621556151.911,31.250,39.062,49.316,33.691,20.508
1621556151.914,34.668,41.504,50.293,29.785,-39.551
1621556151.918,28.320,40.527,52.246,20.508,-30.273
1621556151.922,22.949,38.086,54.199,16.113,72.266
1621556151.926,25.879,34.180,53.223,18.555,44.434
1621556151.930,36.133,32.715,48.828,15.625,-41.016
1621556151.943,36.133,31.250,48.340,14.648,-0.488
1621556151.947,32.227,33.203,53.223,24.414,47.852
1621556151.951,36.133,40.527,52.734,30.762,51.758
1621556151.955,33.203,41.992,47.363,21.484,30.762
1621556151.959,29.785,43.945,43.457,13.184,53.223
1621556151.963,19.531,41.504,43.457,17.578,67.871
1621556151.967,19.531,40.527,44.434,28.809,43.457
1621556151.970,26.855,41.504,44.922,34.668,22.949
1621556151.974,28.809,40.527,43.945,38.086,9.277
1621556151.978,30.273,37.598,42.480,40.527,-9.277
1621556151.982,36.133,37.109,41.992,44.922,27.344
1621556151.986,36.133,39.062,41.504,51.270,83.984
1621556152.036,35.156,39.551,45.410,49.805,35.156
1621556152.040,32.715,36.621,47.363,45.898,60.547
1621556152.044,29.297,34.180,47.363,41.504,25.391
1621556152.048,36.133,34.180,48.828,39.062,-53.711
1621556152.052,37.109,36.621,50.293,33.691,-5.859
1621556152.056,25.879,37.598,45.898,23.926,57.129
1621556152.060,8.789,35.156,46.387,28.809,9.277
1621556152.063,2.441,33.691,48.340,32.715,-33.691
1621556152.067,7.812,33.203,47.852,26.367,-26.367
1621556152.071,11.719,34.180,44.922,18.066,11.719
1621556152.075,18.555,35.156,41.504,11.719,42.480
1621556152.079,32.227,32.715,41.016,12.695,16.113
1621556152.056,39.551,36.133,38.086,12.207,6.836
1621556152.060,37.598,40.527,34.668,10.254,-28.809
1621556152.064,20.020,34.668,35.156,8.789,-11.230
1621556152.068,2.441,34.180,38.574,17.090,-29.297
1621556152.072,6.836,39.551,41.016,16.602,-55.664
1621556152.076,9.277,40.039,40.039,12.207,-28.320
1621556152.080,6.836,40.527,39.062,12.207,10.254
1621556152.083,15.625,39.062,41.016,15.625,3.418
1621556152.087,12.695,35.645,38.574,17.090,-19.043
1621556152.091,6.836,33.691,39.062,14.160,50.293
1621556152.095,13.672,31.250,43.457,19.043,59.570
1621556152.099,18.066,31.738,41.504,17.578,58.105
1621556152.094,28.809,33.203,37.598,15.137,21.973
1621556152.098,37.598,31.738,36.133,15.137,16.113
1621556152.102,33.691,32.715,36.133,15.137,42.969
1621556152.106,22.461,32.227,34.180,11.230,37.598
1621556152.110,19.043,32.227,32.715,11.230,29.297
1621556152.114,13.184,35.645,31.738,14.648,-27.344
1621556152.118,1.953,37.109,33.691,12.695,-59.082
1621556152.121,7.812,36.621,37.109,13.184,-15.625
1621556152.125,17.578,40.039,34.180,13.672,-2.441
1621556152.129,20.996,41.992,34.668,17.578,52.734
1621556152.133,25.879,41.992,38.086,20.020,100.098
1621556152.137,25.879,38.086,41.504,17.578,47.363
1621556152.149,30.273,37.598,44.434,20.508,36.133
1621556152.153,21.484,38.086,43.945,29.297,18.555
1621556152.157,1.953,34.180,43.945,31.250,45.898
1621556152.161,3.906,34.180,41.992,19.531,65.918
1621556152.165,9.766,37.109,41.992,15.137,35.156
1621556152.169,9.277,41.992,41.504,19.531,4.395
1621556152.173,11.719,41.504,38.086,18.066,11.230
1621556152.176,19.043,40.527,39.062,16.113,12.695
1621556152.180,20.508,40.527,42.480,16.113,12.207
1621556152.184,20.020,39.062,41.992,14.160,49.805
1621556152.188,23.438,40.527,42.480,20.508,50.781
1621556152.192,32.227,41.504,46.387,18.066,24.414
1621556152.169,35.645,41.504,45.410,8.789,59.570
1621556152.173,36.133,39.551,44.434,14.160,55.664
1621556152.177,31.738,35.645,49.316,24.902,-30.273
1621556152.181,30.762,36.621,50.781,29.297,-4.883
1621556152.185,35.156,37.109,48.340,25.879,-3.906
1621556152.189,34.668,31.250,44.434,22.949,-64.941
1621556152.193,36.133,28.809,41.504,29.785,-33.691
1621556152.196,40.039,33.203,36.621,28.809,-10.254
1621556152.200,43.945,33.203,39.551,24.902,9.277
1621556152.204,30.273,34.180,40.527,26.855,57.129
1621556152.208,23.438,36.621,39.062,32.715,31.250
1621556152.212,18.066,32.715,41.016,35.645,-34.180
1621556152.223,14.160,32.227,38.574,36.133,-33.203
1621556152.227,13.672,36.133,36.621,50.781,14.648
1621556152.231,-3.906,35.156,38.574,44.922,12.207
1621556152.235,-17.090,30.762,39.551,24.414,17.090
1621556152.239,-16.113,29.297,39.551,14.648,40.527
1621556152.243,-24.902,25.879,36.133,-4.395,16.113
1621556152.247,-29.297,19.531,34.180,-13.672,40.039
1621556152.250,-18.555,18.555,40.527,-10.742,61.035
1621556152.254,-11.230,19.043,37.598,-9.277,97.168
1621556152.258,-17.578,22.949,28.320,-27.344,98.145
1621556152.262,-25.391,26.855,23.438,-38.574,56.152
1621556152.266,-17.090,27.344,18.555,-29.785,24.902
1621556152.262,-5.371,28.809,16.113,-26.367,10.254
1621556152.266,3.906,36.133,19.043,-13.184,0.000
1621556152.270,5.859,34.180,22.461,-11.230,-25.391
1621556152.274,11.719,27.832,21.484,-8.301,-22.949
1621556152.278,20.020,29.297,22.949,6.348,25.391
1621556152.282,21.484,31.250,26.855,10.254,11.719
1621556152.286,22.461,31.250,29.785,11.230,7.812
1621556152.289,29.785,33.203,30.273,17.578,26.855
1621556152.293,39.551,30.762,31.250,25.391,-0.977
1621556152.297,39.062,26.367,35.156,29.785,42.480
1621556152.301,26.367,26.367,36.133,26.855,62.988
1621556152.305,31.250,24.414,38.574,25.879,31.250
1621556152.317,17.090,25.879,45.410,32.715,32.715
1621556152.321,-1.953,28.809,48.340,33.203,42.480
1621556152.325,5.859,29.785,45.410,25.391,37.109
1621556152.329,7.324,27.344,42.969,24.902,-14.160
1621556152.333,21.484,27.832,43.457,36.133,-79.102
1621556152.337,28.320,29.785,44.434,36.133,-39.551
1621556152.341,20.020,32.715,47.852,27.344,1.465
1621556152.344,16.113,33.203,48.340,25.879,16.602
1621556152.348,20.996,30.762,46.387,38.574,-17.578
1621556152.352,27.344,28.320,43.945,40.527,-8.789
1621556152.356,26.367,28.809,41.504,25.391,-4.395
1621556152.360,25.879,34.180,41.016,22.949,20.020
1621556152.356,26.855,37.109,42.480,22.949,23.926
1621556152.360,32.715,38.574,40.527,26.367,-14.648
1621556152.364,35.156,38.086,39.551,29.297,24.414
1621556152.368,30.273,38.574,41.016,20.996,45.898
1621556152.372,32.715,39.551,39.062,18.555,2.930
1621556152.376,36.621,37.109,35.645,27.832,35.645
1621556152.380,34.668,37.109,31.738,23.926,86.914
1621556152.383,37.109,37.598,32.715,20.020,63.477
1621556152.387,40.527,37.598,35.645,16.602,58.594
1621556152.391,47.852,37.598,37.598,16.113,95.703
1621556152.395,53.223,35.645,40.039,21.973,89.844
1621556152.399,41.992,35.645,41.504,19.043,67.383
1621556152.412,27.832,35.645,41.992,15.625,51.270
1621556152.416,20.508,29.297,41.016,26.855,64.941
1621556152.420,14.648,32.227,39.551,37.109,62.500
1621556152.424,14.648,32.227,41.504,33.691,25.391
1621556152.428,16.113,28.320,39.062,28.809,16.602
1621556152.432,16.602,33.691,35.156,28.809,20.996
1621556152.436,22.949,33.203,32.715,25.879,0.977
1621556152.439,24.902,32.715,32.227,24.902,1.465
1621556152.443,18.555,32.715,34.668,24.414,-4.883
1621556152.447,17.090,35.156,30.762,20.996,-29.785
1621556152.451,20.020,34.180,27.832,31.738,15.137
1621556152.455,18.555,30.273,26.367,34.668,65.918
1621556152.431,18.066,34.668,25.879,24.902,27.344
1621556152.435,20.020,37.598,27.832,24.902,2.441
1621556152.439,23.926,36.133,26.855,28.320,6.836
1621556152.443,21.484,36.133,29.297,26.855,-18.066
1621556152.447,18.555,38.086,33.203,23.438,-48.340
1621556152.451,14.160,38.086,29.785,17.090,11.230
1621556152.455,19.531,37.109,30.762,16.602,75.195
1621556152.458,20.996,36.133,34.180,21.484,-21.973
1621556152.462,34.668,29.297,35.156,33.203,-45.410
1621556152.466,49.316,27.832,35.156,44.922,-21.973
1621556152.470,30.762,40.039,28.809,26.367,-56.641
1621556152.474,25.391,50.781,27.344,19.531,-22.461
1621556152.468,42.969,52.734,30.273,31.738,-7.324
1621556152.472,51.758,51.270,32.715,40.527,11.719
1621556152.476,44.434,44.434,36.133,45.898,-7.324
1621556152.480,44.922,42.969,36.621,48.340,13.184
1621556152.484,48.828,45.410,39.551,47.852,61.523
1621556152.488,55.176,43.945,42.969,45.410,29.785
1621556152.492,63.965,44.922,44.922,47.363,1.953
1621556152.495,61.523,42.969,49.316,53.223,10.742
1621556152.499,64.453,43.457,52.246,55.176,44.434
1621556152.503,64.453,48.340,50.781,44.922,33.203
1621556152.507,51.758,45.410,48.828,29.785,-22.461
1621556152.511,47.852,38.086,42.969,24.902,-34.668
1621556152.523,56.152,36.133,37.109,31.738,-38.574
1621556152.527,59.082,35.645,37.598,36.621,-40.527
1621556152.531,42.480,37.109,40.527,30.762,-37.109
1621556152.535,24.414,40.527,42.480,32.715,45.410
1621556152.539,23.926,41.016,41.992,38.574,76.172
1621556152.543,25.879,35.156,41.992,35.645,5.859
1621556152.547,25.879,34.180,42.969,27.344,-23.926
1621556152.550,28.320,34.668,42.480,26.367,-29.297
1621556152.554,31.738,38.086,43.457,34.180,-26.855
1621556152.558,19.531,41.504,43.457,35.645,5.371
1621556152.562,0.488,39.062,40.039,29.297,35.156
1621556152.566,5.371,37.598,41.016,22.949,15.137
1621556152.580,19.531,39.062,40.039,24.902,-25.391
1621556152.584,28.809,36.621,38.574,32.227,22.461
1621556152.588,30.762,33.203,39.062,31.250,30.273
1621556152.592,24.902,35.645,37.109,27.344,-3.906
1621556152.596,26.855,35.645,40.039,34.180,31.738
1621556152.600,36.133,35.156,43.945,36.621,40.039
1621556152.604,43.457,32.227,42.480,31.250,34.180
1621556152.607,46.875,32.227,41.992,27.832,14.648
1621556152.611,56.641,40.039,44.434,33.203,0.977
1621556152.615,61.523,39.551,45.410,41.016,13.672
1621556152.619,54.199,40.039,46.875,43.457,55.176
1621556152.623,48.828,43.457,45.898,38.086,42.969
1621556152.637,49.316,42.480,44.434,33.691,-7.324
1621556152.641,45.898,44.922,44.434,36.133,27.832
1621556152.645,42.969,40.039,42.969,35.156,46.875
1621556152.649,43.945,35.156,42.480,31.738,33.691
1621556152.653,34.668,38.086,41.016,24.902,30.762
1621556152.657,18.555,39.551,39.551,20.996,35.645
1621556152.661,10.254,38.086,39.062,23.926,46.387
1621556152.664,18.555,35.645,39.062,16.113,43.457
1621556152.668,14.648,37.109,38.574,9.766,58.594
1621556152.672,18.555,38.574,41.016,10.254,69.824
1621556152.676,19.043,37.109,47.363,19.531,5.859
1621556152.680,0.000,33.691,48.828,22.461,16.113
1621556152.729,-6.836,33.203,48.340,18.066,94.238
1621556152.733,2.930,37.109,48.340,22.949,57.129
1621556152.737,17.578,35.156,45.410,26.367,53.223
1621556152.741,21.973,36.621,41.016,28.320,33.691
1621556152.745,21.973,41.504,38.086,14.648,7.812
1621556152.749,22.461,39.062,36.621,5.371,44.434
1621556152.753,21.973,41.992,40.527,18.066,36.133
1621556152.756,23.438,44.434,44.434,27.832,8.301
1621556152.760,26.367,43.457,41.992,26.855,-20.996
1621556152.764,23.438,41.992,36.133,23.926,-9.766
1621556152.768,33.203,43.457,34.180,31.738,28.809
1621556152.772,45.898,42.969,35.156,35.156,17.578
1621556152.749,41.992,40.039,34.180,29.785,15.625
1621556152.753,34.180,37.598,34.668,28.320,0.000
1621556152.757,28.809,31.738,39.551,32.715,35.645
1621556152.761,29.785,32.715,42.480,35.156,25.391
1621556152.765,32.227,41.016,40.527,31.250,26.855
1621556152.769,33.691,40.039,38.086,25.879,57.617
1621556152.773,32.227,37.109,36.621,27.344,2.441
1621556152.776,26.855,36.621,37.109,35.645,15.137
1621556152.780,20.508,35.156,38.574,38.086,26.855
1621556152.784,20.020,38.574,37.598,28.320,-14.648
1621556152.788,22.461,39.551,39.062,24.902,4.883
1621556152.792,24.414,37.598,37.598,26.367,27.832
1621556152.823,31.250,34.668,35.156,27.344,39.551
1621556152.827,42.480,34.668,38.574,24.902,81.055
1621556152.831,31.250,33.691,39.551,19.043,16.113
1621556152.835,18.066,33.203,39.551,20.508,-19.531
1621556152.839,20.996,37.109,40.039,26.367,73.242
1621556152.843,15.625,37.598,40.039,21.973,37.109
1621556152.847,16.602,38.086,38.574,8.789,65.430
1621556152.850,17.090,36.133,39.551,9.766,79.590
1621556152.854,23.438,30.273,41.504,26.855,-4.883
1621556152.858,30.762,33.691,42.480,37.598,-27.832
1621556152.862,23.438,39.551,41.016,25.391,-33.691
1621556152.866,14.160,37.598,35.645,15.137,-41.992
1621556152.880,18.066,39.062,35.156,24.414,-12.207
1621556152.884,22.949,38.086,36.621,27.832,46.875
1621556152.888,16.602,32.715,37.598,16.602,42.480
1621556152.892,16.113,31.738,39.551,19.043,3.906
1621556152.896,25.879,30.273,40.039,34.180,16.113
1621556152.900,35.156,28.809,40.527,35.156,41.992
1621556152.904,43.945,33.691,41.992,31.250,45.410
1621556152.907,46.875,36.133,42.969,27.344,14.648
1621556152.911,38.086,34.180,42.969,31.738,48.340
1621556152.915,33.203,36.133,44.922,38.574,72.754
1621556152.919,30.273,38.086,44.434,37.598,-41.504
1621556152.923,26.367,39.551,41.016,32.227,-49.805
1621556152.900,20.020,41.992,39.062,25.879,-1.953
1621556152.904,10.254,40.527,35.156,24.414,20.020
1621556152.908,18.555,39.062,32.715,18.066,20.508
1621556152.912,21.484,38.086,37.109,15.137,-11.719
1621556152.916,9.277,34.180,40.039,16.602,20.508
1621556152.920,5.859,30.273,39.062,19.531,5.371
1621556152.924,9.277,30.762,40.039,26.855,-5.859
1621556152.927,8.789,32.715,41.016,24.414,22.949
1621556152.931,7.324,33.691,39.551,19.043,-7.324
1621556152.935,5.371,34.668,36.621,19.531,-37.109
1621556152.939,3.906,33.691,35.645,18.066,-27.832
1621556152.943,4.883,34.180,34.180,12.207,-31.250
1621556152.974,14.648,35.156,34.180,12.207,-66.406
1621556152.978,23.926,34.180,35.156,18.555,-65.918
1621556152.982,19.531,34.180,35.645,21.484,-40.039
1621556152.986,25.879,37.109,35.156,15.137,-8.301
1621556152.990,36.133,33.203,38.574,11.230,37.109
1621556152.994,38.574,33.691,38.574,8.301,18.555
1621556152.998,37.598,36.133,32.715,6.836,36.133
1621556153.001,26.855,36.133,32.227,9.277,39.062
1621556153.005,15.625,39.551,33.691,10.254,50.781
1621556153.009,19.531,38.574,31.250,10.742,47.852
1621556153.013,30.762,36.133,31.738,17.090,68.848
1621556153.017,30.762,38.086,36.133,24.414,92.285
1621556153.048,19.043,38.574,38.574,27.832,63.965
1621556153.052,9.766,37.598,39.551,25.879,9.277
1621556153.056,9.277,34.180,39.062,25.391,-3.906
1621556153.060,10.742,31.250,41.992,36.621,40.039
1621556153.064,16.113,30.273,47.852,41.992,9.277
1621556153.068,16.113,29.785,47.363,37.109,25.879
1621556153.072,16.602,33.691,45.898,32.715,34.180
1621556153.075,20.020,34.668,45.898,28.809,-0.488
1621556153.079,28.809,35.156,46.875,27.344,61.523
1621556153.083,34.180,37.598,49.316,22.461,138.184
1621556153.087,27.344,37.598,53.223,19.531,61.523
1621556153.091,25.391,34.180,55.664,24.902,1.465
1621556153.067,28.809,34.668,56.152,27.832,17.578
1621556153.071,25.391,38.086,58.594,26.855,-15.625
1621556153.075,27.344,40.527,60.059,15.625,27.344
1621556153.079,32.715,36.621,62.500,12.695,91.309
1621556153.083,31.250,29.785,67.383,18.555,60.547
1621556153.087,35.156,30.273,69.336,14.160,33.691
1621556153.091,36.133,28.320,70.312,9.277,47.852
1621556153.094,35.645,30.762,71.289,10.742,93.750
1621556153.098,23.926,34.180,70.801,15.137,68.359
1621556153.102,6.348,29.785,67.871,16.602,-29.785
1621556153.106,7.812,28.809,69.824,16.113,-9.277
1621556153.110,15.137,33.203,68.848,18.555,62.500
1621556153.123,16.602,32.715,62.500,18.555,63.477
1621556153.127,16.113,33.203,58.594,20.020,113.770
1621556153.131,22.461,33.691,58.594,18.066,67.871
1621556153.135,25.879,34.180,56.641,20.020,22.461
1621556153.139,29.785,31.250,58.105,29.785,35.156
1621556153.143,30.762,33.203,60.059,27.832,-20.996
1621556153.147,24.902,37.598,56.152,24.902,21.484
1621556153.150,21.973,40.527,53.223,24.414,20.508
1621556153.154,28.320,43.457,55.176,33.203,-12.695
1621556153.158,35.645,36.621,59.082,35.645,28.320
1621556153.162,32.715,31.738,56.152,26.367,48.828
1621556153.166,19.531,28.809,54.688,24.414,36.621
1621556153.162,18.555,31.250,56.641,24.414,43.457
1621556153.166,24.902,38.086,56.641,33.691,64.941
1621556153.170,21.484,39.062,55.176,33.203,50.781
1621556153.174,25.391,41.016,56.152,29.785,62.012
1621556153.178,26.855,42.480,54.199,28.809,85.449
1621556153.182,26.367,39.551,50.781,23.926,46.875
1621556153.186,28.809,36.133,48.340,25.879,-19.043
1621556153.189,27.344,37.109,48.828,19.043,-57.617
1621556153.193,22.461,38.574,53.223,21.484,-22.949
1621556153.197,25.391,37.598,49.316,26.367,-32.715
1621556153.201,25.391,35.645,44.922,22.949,-25.391
1621556153.205,21.484,39.551,45.898,23.926,9.277
1621556153.236,19.043,39.062,41.992,16.602,-2.441
1621556153.240,18.066,30.273,40.527,14.648,-50.293
1621556153.244,25.391,28.809,42.969,22.461,-63.965
1621556153.248,26.367,31.250,40.527,24.414,15.137
1621556153.252,17.090,31.738,38.574,18.066,38.574
1621556153.256,16.113,35.645,39.551,20.508,36.621
1621556153.260,22.461,39.062,38.086,25.879,41.504
1621556153.263,22.949,37.598,34.180,18.555,34.668
1621556153.267,17.578,36.621,31.250,17.090,-15.625
1621556153.271,16.113,33.691,33.691,14.160,-10.742
1621556153.275,28.320,36.133,38.574,19.531,30.273
1621556153.279,36.133,41.504,39.551,28.809,50.781
1621556153.273,27.344,40.039,40.039,25.879,49.316
1621556153.277,9.277,38.086,42.969,30.762,7.812
1621556153.281,1.465,39.062,43.457,36.621,-67.871
1621556153.285,2.441,37.109,40.039,33.691,-46.387
1621556153.289,7.812,33.203,36.621,27.344,32.227
1621556153.293,9.766,36.133,37.109,22.461,-3.418
1621556153.297,16.602,39.551,36.133,30.762,-24.902
1621556153.300,22.461,42.480,37.598,39.062,77.148
1621556153.304,14.160,41.992,39.062,32.715,115.234
1621556153.308,0.977,38.086,36.133,21.973,61.035
1621556153.312,6.348,40.039,34.180,14.160,49.805
1621556153.316,12.695,39.062,32.715,14.160,38.574
1621556153.329,15.625,41.504,36.621,14.648,21.973
1621556153.333,18.555,45.410,36.621,9.277,5.371
1621556153.337,26.855,37.598,33.203,12.207,-29.785
1621556153.341,33.203,32.715,30.273,18.066,24.414
1621556153.345,30.762,38.086,30.273,19.531,21.973
1621556153.349,33.203,40.039,32.715,18.555,-11.719
1621556153.353,28.320,41.016,31.250,17.090,-2.930
1621556153.356,31.738,44.434,28.320,17.090,8.789
1621556153.360,39.062,43.945,30.273,27.344,-3.418
1621556153.364,34.180,42.969,32.715,21.484,25.391
1621556153.368,32.715,43.457,32.227,13.184,99.609
1621556153.372,31.738,40.039,32.715,24.414,64.453
1621556153.349,28.809,39.551,35.645,32.227,7.324
1621556153.353,28.809,40.039,41.504,29.297,68.848
1621556153.357,10.742,34.668,43.457,19.531,92.285
1621556153.361,-9.277,33.203,44.434,20.508,16.113
1621556153.365,0.000,34.668,49.805,30.273,22.461
1621556153.369,11.230,32.227,47.363,31.250,38.574
1621556153.373,9.277,34.180,41.504,21.973,-16.602
1621556153.376,18.555,37.598,43.945,22.949,-62.988
1621556153.380,25.391,35.645,46.387,29.785,-56.641
1621556153.384,19.531,33.203,47.852,22.461,-44.922
1621556153.388,12.695,32.715,47.852,10.742,-23.926
1621556153.392,11.230,32.715,44.922,13.672,0.488
1621556153.423,14.648,35.156,47.363,22.949,31.250
1621556153.427,17.578,36.133,45.898,25.391,64.453
1621556153.431,18.066,35.645,40.039,20.508,48.828
1621556153.435,18.555,37.109,38.086,13.184,48.828
1621556153.439,21.484,33.203,37.109,13.184,29.785
1621556153.443,25.879,28.809,37.109,15.625,-7.324
1621556153.447,28.809,30.273,37.109,11.230,-0.488
1621556153.450,29.297,34.180,32.715,4.395,-27.344
1621556153.454,27.832,35.156,31.738,3.906,17.578
1621556153.458,33.203,35.645,33.203,16.602,10.254
1621556153.462,20.996,32.227,34.668,22.461,-34.180
1621556153.466,6.836,31.738,37.598,18.555,-16.113
1621556153.444,9.766,32.715,39.551,19.043,43.945
1621556153.448,24.414,31.250,40.039,21.484,81.055
1621556153.452,38.574,33.203,38.574,20.020,19.531
1621556153.456,30.273,32.227,40.039,19.531,-16.113
1621556153.460,14.160,32.715,40.527,14.648,-27.344
1621556153.464,17.578,36.621,34.180,16.113,32.715
1621556153.468,22.949,39.551,29.297,22.949,66.406
1621556153.471,24.902,40.527,31.250,18.066,-0.977
1621556153.475,28.809,38.574,34.668,19.043,-12.207
1621556153.479,18.066,41.504,35.645,24.902,42.480
1621556153.483,11.719,37.598,32.715,22.949,30.273
1621556153.487,19.043,29.297,33.203,19.531,38.574
1621556153.499,20.996,37.109,36.133,16.113,34.180
1621556153.503,24.414,37.598,33.691,14.160,24.902
1621556153.507,27.832,35.645,35.156,13.672,87.402
1621556153.511,27.344,33.203,41.992,16.602,102.051
1621556153.515,21.973,29.297,46.387,17.090,28.320
1621556153.519,19.043,35.645,48.828,14.160,-39.062
1621556153.523,17.578,37.109,48.828,18.555,-43.457
1621556153.526,15.137,33.691,48.828,23.926,-20.508
1621556153.530,15.625,33.203,48.340,22.461,30.273
1621556153.534,17.090,33.691,47.852,21.973,61.035
1621556153.538,18.066,36.133,50.781,23.926,18.066
1621556153.542,24.414,38.574,50.293,26.855,3.418
1621556153.554,26.855,38.574,49.316,24.414,44.922
1621556153.558,22.949,38.574,49.805,20.020,40.527
1621556153.562,19.531,39.551,50.781,22.461,20.996
1621556153.566,24.902,34.668,48.828,20.996,24.902
1621556153.570,33.691,40.039,45.898,11.230,-4.395
1621556153.574,30.762,44.434,44.922,4.883,-9.277
1621556153.578,29.785,38.086,40.527,3.906,6.348
1621556153.581,39.062,39.551,38.086,5.371,27.832
1621556153.585,39.551,41.016,40.039,6.836,14.648
1621556153.589,27.344,36.621,42.969,7.324,-41.504
1621556153.593,23.926,36.621,46.875,11.230,-18.555
1621556153.597,31.738,39.062,46.387,23.438,41.504
1621556153.575,26.367,36.621,41.016,21.973,39.551
1621556153.579,6.836,32.715,43.457,19.043,61.523
1621556153.583,0.000,32.227,48.828,23.926,84.473
1621556153.587,3.906,31.738,50.293,20.996,20.020
1621556153.591,14.648,30.762,48.340,19.043,96.680
1621556153.595,8.789,35.156,45.898,20.020,94.238
1621556153.599,-9.277,34.668,48.340,21.973,29.785
1621556153.602,-8.301,28.809,53.711,30.273,51.270
1621556153.606,6.836,30.273,54.199,35.156,17.578
1621556153.610,22.461,32.715,52.246,36.621,6.836
1621556153.614,37.109,32.227,52.246,38.574,47.852
1621556153.618,53.711,38.086,47.363,32.715,47.363
1621556153.611,41.504,35.645,41.992,27.344,-3.906
1621556153.615,32.227,34.668,38.574,28.809,4.395
1621556153.619,37.598,41.992,35.645,22.949,-7.812
1621556153.623,31.250,42.480,32.715,19.531,6.348
1621556153.627,33.691,39.551,32.227,30.762,3.906
1621556153.631,41.992,36.133,36.133,41.504,5.859
1621556153.635,36.133,38.086,35.156,22.461,22.949
1621556153.638,20.508,36.621,36.133,2.441,3.906
1621556153.642,18.555,33.691,35.156,2.930,12.695
1621556153.646,20.020,37.598,31.738,12.207,31.250
1621556153.650,26.367,39.062,33.203,11.719,5.859
1621556153.654,35.156,35.156,33.203,11.230,13.184
1621556153.650,37.109,35.156,34.180,20.020,-9.277
1621556153.654,22.461,36.133,35.645,26.855,-29.297
1621556153.658,4.395,31.250,38.086,34.180,-8.789
1621556153.662,2.930,28.320,40.527,26.855,-3.418
1621556153.666,5.371,24.902,40.039,17.090,20.508
1621556153.670,3.906,18.555,38.086,20.996,-14.160
1621556153.674,-4.395,19.043,37.109,23.438,12.207
1621556153.677,-21.484,23.438,41.016,21.973,38.574
1621556153.681,-29.297,28.320,40.039,24.414,12.695
1621556153.685,-16.602,32.227,35.645,28.320,17.090
1621556153.689,-2.930,34.180,36.621,28.320,-7.812
1621556153.693,10.742,38.574,38.086,28.320,1.953
1621556153.706,29.785,39.551,41.504,25.391,-11.719
1621556153.710,40.039,37.109,43.945,22.949,-87.891
1621556153.714,37.109,38.086,46.875,34.180,-69.824
1621556153.718,35.645,39.551,49.805,35.156,20.508
1621556153.722,32.715,40.039,46.875,17.578,15.137
1621556153.726,33.691,36.133,46.387,11.719,6.348
1621556153.730,38.086,38.086,47.363,17.578,-3.418
1621556153.733,41.504,42.480,48.340,25.391,-42.969
1621556153.737,38.574,41.992,49.316,23.438,12.695
1621556153.741,40.039,42.480,50.781,26.367,-37.109
1621556153.745,47.363,39.062,53.223,31.738,-78.125
1621556153.749,52.246,37.109,56.641,37.598,42.969
1621556153.761,48.828,36.621,60.059,38.574,83.008
1621556153.765,41.504,30.273,60.547,25.391,83.496
1621556153.769,38.086,30.273,58.105,18.555,65.918
1621556153.773,23.438,35.645,54.688,20.996,58.105
1621556153.777,15.625,33.203,54.688,13.672,70.801
1621556153.781,25.391,31.738,55.664,5.371,30.762
1621556153.785,26.855,31.738,55.176,7.324,28.809
1621556153.788,23.926,31.250,51.270,14.160,15.625
1621556153.792,9.277,28.320,49.316,24.414,2.930
1621556153.796,-3.906,27.344,50.293,25.879,24.902
1621556153.800,-10.742,28.320,46.875,19.531,19.043
1621556153.804,-11.230,26.367,46.387,23.926,36.621
1621556153.817,-7.812,23.926,49.805,22.949,37.109
1621556153.821,-11.719,26.367,50.293,12.695,29.785
1621556153.825,-18.066,27.832,50.293,10.254,36.621
1621556153.829,-19.531,27.344,46.875,10.254,84.473
1621556153.833,-23.926,25.879,44.922,12.207,16.602
1621556153.837,-18.066,25.391,43.945,16.113,-52.246
1621556153.841,-2.930,29.785,40.039,10.254,-9.277
1621556153.844,9.766,33.691,38.574,14.648,49.805
1621556153.848,22.949,35.645,39.551,25.879,57.129
1621556153.852,30.273,36.621,41.016,27.832,76.660
1621556153.856,36.621,41.504,39.551,26.367,76.660
1621556153.860,41.504,45.410,40.527,23.438,37.598
1621556153.856,43.457,41.504,39.062,22.949,2.930
1621556153.860,43.457,40.039,36.621,21.973,31.738
1621556153.864,51.758,38.574,37.598,23.438,15.625
1621556153.868,57.129,38.574,40.039,24.414,0.000
1621556153.872,55.176,40.527,38.086,18.066,-10.254
1621556153.876,59.570,40.527,34.668,22.949,-15.625
1621556153.880,53.223,41.504,35.645,28.809,42.969
1621556153.883,36.133,39.062,34.180,24.414,65.918
1621556153.887,38.574,36.133,29.297,24.902,3.418
1621556153.891,44.434,34.668,29.785,28.809,4.883
1621556153.895,37.598,33.203,34.668,20.508,94.238
1621556153.899,35.645,31.738,35.645,16.113,77.148
1621556153.892,30.273,31.738,34.668,23.926,27.832
1621556153.896,22.949,35.645,34.180,31.738,12.207
1621556153.900,17.090,35.645,35.156,33.203,-48.828
1621556153.904,17.090,36.621,35.645,25.879,-22.949
1621556153.908,16.113,39.062,38.086,26.367,13.672
1621556153.912,5.859,33.203,38.086,27.344,15.625
1621556153.916,8.789,32.227,40.527,29.785,23.438
1621556153.919,-5.859,37.598,41.016,25.879,-7.812
1621556153.923,-14.160,37.109,40.527,13.672,6.836
1621556153.927,-8.301,34.180,42.480,16.113,-13.672
1621556153.931,-13.672,30.762,43.945,14.648,-50.781
1621556153.935,-14.160,28.809,41.504,6.348,-8.789
1621556153.929,-9.277,32.715,39.551,9.277,2.930
1621556153.933,0.000,33.691,41.504,11.230,23.926
1621556153.937,12.695,27.832,39.551,12.207,50.781
1621556153.941,24.414,32.227,38.574,17.090,27.832
1621556153.945,33.203,41.016,37.109,16.113,67.871
1621556153.949,40.527,41.016,35.645,20.508,75.684
1621556153.953,44.922,39.062,37.598,31.738,40.527
1621556153.956,48.340,36.621,38.086,34.180,30.762
1621556153.960,49.316,38.086,35.645,23.438,6.836
1621556153.964,54.199,35.645,34.180,13.184,57.129
1621556153.968,47.363,33.691,38.574,20.020,78.125
1621556153.972,24.902,37.598,42.969,23.438,24.902
1621556153.969,25.879,38.574,41.016,13.184,-7.812
1621556153.973,35.156,38.086,39.551,11.719,10.254
1621556153.977,21.484,35.156,38.574,19.043,36.133
1621556153.981,12.695,34.668,38.086,22.461,-14.648
1621556153.985,20.996,36.621,37.109,20.996,-20.508
1621556153.989,16.113,31.738,38.574,27.344,16.602
1621556153.993,7.812,31.738,41.992,32.227,27.832
1621556153.996,16.113,31.738,40.039,33.691,36.621
1621556154.000,28.809,30.762,43.457,34.668,78.125
1621556154.004,21.484,33.691,51.270,19.043,54.688
1621556154.008,-0.977,29.297,50.781,14.648,29.785
1621556154.012,-9.277,31.738,47.852,13.184,42.969
1621556154.024,-9.766,33.203,47.363,-0.977,25.879
1621556154.028,-4.395,33.691,49.316,-1.953,1.465
1621556154.032,-0.977,36.621,46.875,1.465,0.488
1621556154.036,6.348,36.621,42.969,8.789,-15.137
1621556154.040,20.996,37.109,44.922,17.090,-27.344
1621556154.044,24.902,37.109,46.387,19.043,15.137
1621556154.048,28.320,39.551,48.340,23.926,-34.668
1621556154.051,29.297,36.621,49.805,32.715,-38.086
1621556154.055,31.738,30.273,48.828,34.668,31.250
1621556154.059,27.344,32.715,46.387,27.832,27.344
1621556154.063,25.391,39.551,44.922,25.391,-8.789
1621556154.067,39.551,44.922,45.410,26.367,-39.062
1621556154.080,47.363,43.457,45.898,26.855,-6.348
1621556154.084,43.457,36.621,44.434,23.926,65.430
1621556154.088,32.715,38.086,43.457,18.066,27.344
1621556154.092,26.367,42.969,42.480,21.973,-15.137
1621556154.096,33.691,42.969,42.480,24.902,54.199
1621556154.100,39.062,42.480,42.480,24.414,61.523
1621556154.104,34.180,38.574,39.551,21.973,60.059
1621556154.107,33.203,36.133,37.598,18.555,34.180
1621556154.111,37.109,38.574,36.133,21.973,18.066
1621556154.115,24.902,38.086,36.133,20.508,79.590
1621556154.119,19.531,35.645,37.109,17.578,133.301
1621556154.123,26.367,35.645,37.109,12.207,78.613
1621556154.136,32.715,34.668,36.133,10.742,-21.484
1621556154.140,35.156,37.109,34.668,19.531,18.555
1621556154.144,22.461,41.504,34.668,22.949,10.742
1621556154.148,15.137,40.039,35.645,17.090,-47.363
1621556154.152,17.578,37.598,34.668,12.695,25.391
1621556154.156,16.113,36.133,33.691,20.020,48.828
1621556154.160,11.719,36.621,37.109,30.273,32.227
1621556154.163,10.742,32.227,33.691,20.996,11.719
1621556154.167,11.230,28.809,27.344,13.672,20.508
1621556154.171,13.184,29.785,28.809,24.902,20.508
1621556154.175,15.625,30.762,30.273,25.391,-33.203
1621556154.179,9.766,34.668,30.273,20.508,25.391
1621556154.173,6.836,37.109,32.227,23.926,71.289
1621556154.177,17.090,34.668,33.691,31.250,83.008
1621556154.181,31.250,37.109,30.762,31.250,94.238
1621556154.185,40.527,45.898,30.273,25.391,45.410
1621556154.189,53.223,46.387,29.297,26.367,-34.180
1621556154.193,58.105,47.852,30.762,31.250,-16.113
1621556154.197,43.457,46.387,36.133,35.156,-26.367
1621556154.200,35.156,41.992,38.086,31.738,-63.965
1621556154.204,25.879,43.457,39.551,25.391,-47.852
1621556154.208,16.602,45.898,41.504,22.949,-21.973
1621556154.212,19.531,41.504,40.039,18.555,-16.602
1621556154.216,20.996,40.527,41.504,10.742,6.836
1621556154.211,12.207,38.086,41.504,5.371,-0.977
1621556154.215,11.719,33.691,43.945,5.371,-12.695
1621556154.219,14.160,38.086,47.852,12.207,29.297
1621556154.223,19.531,38.574,45.898,15.625,34.668
1621556154.227,26.367,35.645,45.410,15.625,29.785
1621556154.231,28.320,30.762,46.387,16.602,-37.109
1621556154.235,29.785,27.344,41.992,24.414,-8.789
1621556154.238,30.762,32.715,40.039,31.738,9.766
1621556154.242,29.785,41.016,41.504,30.762,12.207
1621556154.246,29.785,40.527,40.039,21.484,13.672
1621556154.250,26.367,35.645,41.992,22.461,-6.836
1621556154.254,27.832,32.227,41.992,26.855,51.270
1621556154.249,27.344,30.273,37.598,23.926,60.059
1621556154.253,26.855,30.273,35.645,31.250,10.254
1621556154.257,25.391,30.762,32.715,26.855,-10.254
1621556154.261,12.207,32.227,31.738,27.832,67.871
1621556154.265,9.277,33.203,34.668,37.109,37.598
1621556154.269,13.672,34.668,32.715,30.273,-19.531
1621556154.273,15.137,34.668,27.832,25.391,-30.762
1621556154.276,17.578,34.668,28.320,33.691,-47.363
1621556154.280,20.996,34.668,29.297,39.062,-31.738
1621556154.284,18.066,39.062,25.879,25.879,4.395
1621556154.288,17.578,44.922,22.949,20.508,-1.953
1621556154.292,15.137,40.527,21.973,13.184,0.977
1621556154.287,20.508,40.527,23.926,5.859,26.855
1621556154.291,23.926,41.016,24.902,5.859,9.277
1621556154.295,11.230,36.621,24.902,1.465,35.156
1621556154.299,6.348,36.133,26.367,2.441,67.871
1621556154.303,13.184,41.016,27.344,8.301,24.414
1621556154.307,20.508,43.457,27.344,7.324,21.484
1621556154.311,23.926,40.527,30.273,9.277,-2.441
1621556154.314,26.855,42.969,36.133,14.160,-0.977
1621556154.318,37.598,44.434,37.598,23.438,11.719
1621556154.322,40.527,39.551,39.062,22.461,-19.531
1621556154.326,36.621,40.527,39.062,15.137,-11.719
1621556154.330,36.621,43.457,35.645,19.043,-14.160
1621556154.342,35.645,40.527,34.180,26.855,6.836
1621556154.346,33.203,42.969,31.250,32.227,88.379
1621556154.350,25.391,41.504,29.785,30.762,30.273
1621556154.354,21.484,39.062,30.762,23.438,35.156
1621556154.358,22.461,38.574,33.203,21.973,62.500
1621556154.362,26.367,33.691,33.203,26.367,21.973
1621556154.366,32.715,31.250,34.668,22.949,39.062
1621556154.369,30.273,33.691,37.598,16.113,11.719
1621556154.373,20.996,34.180,37.598,19.531,43.457
1621556154.377,16.602,35.645,41.016,21.484,76.660
1621556154.381,13.184,39.551,43.945,22.461,59.082
1621556154.385,20.508,40.039,41.504,13.184,47.363
1621556154.362,24.414,43.945,41.992,7.812,35.156
1621556154.366,1.953,42.969,42.480,16.602,78.613
1621556154.370,1.465,41.504,41.504,16.113,30.273
1621556154.374,19.043,44.922,39.551,7.324,-2.441
1621556154.378,15.625,44.434,37.598,4.395,24.414
1621556154.382,15.137,35.156,35.645,6.348,-11.719
1621556154.386,22.461,34.668,33.691,11.719,-32.227
1621556154.389,20.020,43.945,32.227,8.789,-34.180
1621556154.393,20.020,44.922,30.762,4.395,-66.406
1621556154.397,22.949,42.969,30.762,11.719,-59.570
1621556154.401,26.855,41.504,30.273,17.578,10.742
1621556154.405,34.180,41.016,31.738,23.926,74.219
1621556154.436,37.109,41.504,32.715,33.691,13.672
1621556154.440,32.715,42.969,35.645,28.809,-12.207
1621556154.444,31.738,45.410,39.062,29.297,66.406
1621556154.448,28.320,41.504,42.969,36.133,63.965
1621556154.452,23.926,41.504,45.898,28.809,35.156
1621556154.456,25.879,42.969,43.457,27.832,7.812
1621556154.460,33.203,38.574,41.992,38.086,-10.742
1621556154.463,37.598,35.156,41.016,36.133,19.531
1621556154.467,34.668,32.227,39.551,25.879,24.902
1621556154.471,33.691,30.762,41.504,24.902,7.812
1621556154.475,37.598,34.668,45.410,31.250,6.348
1621556154.479,42.480,40.527,41.504,34.668,40.039
1621556154.492,42.969,37.598,41.016,31.738,58.105
1621556154.496,40.039,32.227,44.434,25.879,20.996
1621556154.500,40.039,32.227,44.434,27.832,-26.367
1621556154.504,35.156,29.297,45.410,41.016,3.418
1621556154.508,23.926,28.809,50.293,38.574,17.578
1621556154.512,21.973,33.691,52.246,23.926,-17.090
1621556154.516,18.555,32.715,50.781,25.391,11.230
1621556154.519,11.719,32.227,52.734,29.297,45.898
1621556154.523,6.836,35.645,51.270,23.438,20.996
1621556154.527,3.906,38.086,44.922,4.395,24.902
1621556154.531,1.953,35.156,46.875,2.930,44.922
1621556154.535,7.324,33.203,51.270,18.066,44.922
1621556154.512,14.160,34.668,48.828,19.531,61.035
1621556154.516,24.414,38.086,46.875,14.648,33.691
1621556154.520,27.344,39.551,48.340,13.184,45.898
1621556154.524,29.297,35.156,48.828,18.555,14.648
1621556154.528,34.668,34.668,47.363,26.855,21.484
1621556154.532,27.832,38.574,49.316,30.273,76.660
1621556154.536,22.949,36.621,51.270,31.738,20.020
1621556154.539,28.320,35.156,48.828,34.180,-78.613
1621556154.543,32.227,36.133,51.270,37.109,-72.266
1621556154.547,29.297,36.621,56.152,32.227,41.504
1621556154.551,27.344,37.598,54.688,20.508,79.590
1621556154.555,29.297,37.109,52.246,17.578,31.250
1621556154.567,30.273,35.645,49.805,24.414,8.789
1621556154.571,18.555,38.574,49.316,32.715,32.227
1621556154.575,14.648,36.621,50.293,30.762,29.785
1621556154.579,22.949,32.227,47.363,25.879,41.504
1621556154.583,28.320,33.203,47.852,31.738,50.293
1621556154.587,32.715,35.156,48.340,36.133,29.785
1621556154.591,31.738,36.133,46.387,30.273,62.988
1621556154.594,33.203,41.504,43.457,18.066,40.527
1621556154.598,47.363,37.598,40.039,12.207,2.441
1621556154.602,47.363,33.203,39.551,6.836,53.223
1621556154.606,8.301,32.715,41.504,2.441,41.992
1621556154.610,-15.137,34.180,46.387,-2.441,17.578
1621556154.588,-5.371,40.527,53.711,2.441,68.848
1621556154.592,-0.488,38.574,51.758,13.672,75.195
1621556154.596,1.953,39.062,49.316,17.578,75.195
1621556154.600,5.859,37.109,49.805,17.578,33.691
1621556154.604,6.348,32.715,49.316,23.438,31.250
1621556154.608,1.465,34.180,47.852,26.855,-6.836
1621556154.612,8.301,35.156,45.898,26.367,-62.012
1621556154.615,16.602,35.645,44.922,23.438,77.148
1621556154.619,18.066,35.645,44.434,19.531,122.070
1621556154.623,18.066,36.621,45.410,31.250,43.457
1621556154.627,19.531,39.551,41.016,42.969,-22.949
1621556154.631,27.832,41.504,39.551,34.180,-36.133
1621556154.642,34.668,40.527,41.504,26.367,-17.090
1621556154.646,41.992,36.133,40.527,35.645,80.078
1621556154.650,44.922,37.109,40.527,35.156,68.848
1621556154.654,38.086,38.574,41.504,30.273,5.859
1621556154.658,31.250,34.180,43.945,29.297,35.156
1621556154.662,30.762,30.273,45.410,28.320,9.277
1621556154.666,33.203,33.691,45.898,29.297,68.359
1621556154.669,29.785,42.480,41.016,21.484,46.387
1621556154.673,31.738,43.945,37.598,8.789,-21.973
1621556154.677,36.133,41.504,40.527,2.441,-25.391
1621556154.681,28.809,40.039,41.504,13.184,-27.344
1621556154.685,11.719,37.109,40.039,17.090,61.523
1621556154.680,10.254,38.086,41.016,8.301,68.848
1621556154.684,19.043,36.621,41.504,7.812,3.906
1621556154.688,21.484,33.691,41.504,7.812,26.855
1621556154.692,11.719,35.645,43.945,5.371,40.039
1621556154.696,2.441,38.086,40.527,6.348,-25.391
1621556154.700,7.324,36.621,36.133,6.836,-23.926
1621556154.704,9.277,36.133,35.156,14.160,44.922
1621556154.707,14.160,36.621,32.227,21.484,52.734
1621556154.711,17.578,35.645,32.715,24.414,123.535
1621556154.715,18.555,36.621,34.668,24.902,90.332
1621556154.719,17.578,36.133,34.668,23.926,0.977
1621556154.723,20.020,33.203,36.621,27.344,-20.508
1621556154.773,19.531,29.297,38.574,29.785,-23.438
1621556154.777,9.277,26.367,38.086,30.273,53.711
1621556154.781,2.441,21.973,33.203,30.273,72.266
1621556154.785,13.184,26.367,31.250,38.086,31.250
1621556154.789,24.414,35.645,31.250,41.016,-14.160
1621556154.793,25.391,35.645,30.762,30.273,-27.832
1621556154.797,24.414,32.715,26.855,19.043,-17.578
1621556154.800,22.461,30.273,27.344,16.602,-53.223
1621556154.804,20.508,31.738,32.227,27.832,-27.344
1621556154.808,23.438,35.645,33.691,27.344,23.438
1621556154.812,23.926,37.109,31.738,14.160,-5.859
1621556154.816,23.438,36.621,29.297,12.207,16.602
1621556154.812,27.832,31.250,30.273,12.207,28.809
1621556154.816,30.273,32.715,35.156,13.184,37.109
1621556154.820,24.414,37.598,36.621,11.230,50.781
1621556154.824,21.973,36.133,35.156,4.883,2.930
1621556154.828,31.738,35.645,34.668,6.836,-10.742
1621556154.832,39.551,40.039,37.109,10.742,16.602
1621556154.836,32.227,41.504,40.039,7.812,16.113
1621556154.839,22.949,40.039,41.504,6.836,41.016
1621556154.843,17.090,39.062,45.898,8.789,29.297
1621556154.847,8.789,37.598,45.898,8.789,-32.715
1621556154.851,5.371,34.668,42.480,13.184,-14.160
1621556154.855,7.324,31.738,44.434,14.160,-29.785
1621556154.868,7.324,28.809,47.363,22.949,32.227
1621556154.872,16.113,31.738,44.922,33.691,99.609
1621556154.876,21.973,36.133,44.922,32.227,49.805
1621556154.880,22.949,36.621,45.410,24.902,57.129
1621556154.884,22.949,37.109,45.898,23.438,58.105
1621556154.888,20.020,37.109,47.852,33.203,37.598
1621556154.892,21.484,35.645,46.387,28.809,54.199
1621556154.895,23.438,34.180,46.875,18.066,23.438
1621556154.899,23.438,34.668,48.340,22.949,-19.043
1621556154.903,16.113,30.762,47.363,30.762,-28.320
1621556154.907,14.648,32.227,44.434,26.855,-32.715
1621556154.911,14.648,34.180,41.016,19.531,6.836
1621556154.905,15.625,34.180,41.504,19.531,29.785
1621556154.909,24.902,36.621,39.062,22.949,39.062
1621556154.913,25.391,37.109,41.504,21.973,28.320
1621556154.917,29.785,37.598,45.410,16.113,21.973
1621556154.921,24.902,42.480,45.410,3.418,37.109
1621556154.925,17.090,44.434,49.316,2.930,3.418
1621556154.929,21.484,40.527,48.828,13.672,-56.641
1621556154.932,21.484,38.086,47.363,13.184,-49.316
1621556154.936,20.996,35.645,48.340,4.883,-0.977
1621556154.940,27.832,38.086,42.480,5.859,17.090
1621556154.944,22.949,39.062,38.086,7.812,5.859
1621556154.948,12.207,32.715,42.969,5.859,2.441
1621556154.925,14.648,30.762,44.922,-2.441,55.176
1621556154.929,8.301,36.133,43.457,-0.977,21.484
1621556154.933,2.930,41.992,47.363,6.348,-36.621
1621556154.937,9.277,36.621,51.758,13.672,41.992
1621556154.941,20.508,33.691,48.340,14.160,91.797
1621556154.945,19.531,37.109,43.945,13.672,68.359
1621556154.949,23.438,35.645,44.434,22.949,36.621
1621556154.952,36.133,32.715,48.340,31.250,-24.902
1621556154.956,40.039,32.715,51.758,33.691,-54.199
1621556154.960,27.832,36.133,50.293,29.297,-17.578
1621556154.964,20.996,31.250,47.363,27.832,-6.348
1621556154.968,23.926,29.785,43.457,34.180,-25.391
1621556154.979,14.160,31.738,42.969,31.738,-9.766
1621556154.983,15.625,27.832,46.875,26.855,28.320
1621556154.987,25.879,28.320,47.363,29.297,34.180
1621556154.991,27.344,31.250,43.457,33.691,-7.812
1621556154.995,31.738,35.645,42.480,38.086,2.930
1621556154.999,23.926,39.062,42.969,28.320,-61.523
1621556155.003,10.742,35.645,43.945,21.484,-47.852
1621556155.006,11.230,34.180,43.945,24.414,6.836
1621556155.010,20.508,38.086,43.457,21.973,19.531
1621556155.014,24.902,39.551,45.410,15.625,99.609
1621556155.018,20.508,40.039,45.410,14.160,92.773
1621556155.022,26.367,39.062,42.969,18.066,62.500
1621556155.000,34.180,35.156,45.410,20.996,61.035
1621556155.004,22.949,35.156,47.852,18.555,57.129
1621556155.008,9.277,36.621,47.363,13.672,3.906
1621556155.012,7.812,32.227,46.387,13.672,12.207
1621556155.016,14.160,31.250,45.898,24.902,49.805
1621556155.020,21.484,34.180,41.992,23.438,38.574
1621556155.024,23.926,36.621,41.016,10.254,-5.371
1621556155.027,20.996,36.133,40.527,10.742,-51.270
1621556155.031,15.137,34.668,37.598,16.602,-26.855
1621556155.035,18.066,31.250,41.504,15.625,42.480
1621556155.039,21.484,31.250,48.340,11.230,50.293
1621556155.043,16.602,37.109,45.898,9.766,-18.555
1621556155.093,17.090,36.621,42.969,9.277,-19.043
1621556155.097,23.438,30.273,46.875,16.113,45.410
1621556155.101,20.508,32.715,44.434,17.578,20.020
1621556155.105,13.184,37.109,41.504,16.602,16.113
1621556155.109,14.648,36.133,45.410,23.926,41.016
1621556155.113,20.508,30.762,48.340,32.715,38.086
1621556155.117,25.879,28.320,49.805,30.762,53.711
1621556155.120,25.879,32.227,51.758,25.879,55.176
1621556155.124,25.391,30.273,51.758,29.785,69.336
1621556155.128,27.832,32.715,53.711,28.809,58.105
1621556155.132,21.484,36.133,52.734,22.949,60.059
1621556155.136,27.832,39.062,47.363,18.066,57.617
1621556155.149,26.855,41.504,45.410,15.137,20.508
1621556155.153,22.461,42.480,48.340,20.508,8.301
1621556155.157,30.273,42.969,50.293,20.020,14.160
1621556155.161,23.926,44.922,52.734,17.578,4.883
1621556155.165,20.508,44.922,51.270,12.695,-7.324
1621556155.169,21.973,35.156,49.316,15.137,35.156
1621556155.173,25.391,33.203,51.758,23.926,31.250
1621556155.176,23.438,40.039,50.781,17.090,29.297
1621556155.180,23.438,40.039,53.223,20.020,35.156
1621556155.184,30.273,31.738,54.688,28.320,-6.836
1621556155.188,35.645,32.227,56.152,23.438,31.250
1621556155.192,27.832,41.504,53.711,16.113,57.129
1621556155.206,11.230,40.527,52.246,10.254,-33.691
1621556155.210,10.254,36.621,50.781,9.766,5.859
1621556155.214,11.230,34.668,46.875,9.766,91.309
1621556155.218,7.324,36.133,51.270,12.207,36.133
1621556155.222,5.371,37.598,56.152,14.160,55.664
1621556155.226,2.441,35.156,51.270,13.672,64.453
1621556155.230,10.254,31.738,49.316,24.902,-29.297
1621556155.233,21.484,29.785,51.758,32.227,11.230
1621556155.237,20.508,30.273,52.734,27.832,84.961
1621556155.241,19.043,28.809,55.176,31.250,63.965
1621556155.245,25.879,31.738,56.641,37.598,-14.160
1621556155.249,28.320,35.156,56.152,36.621,-3.906
1621556155.260,24.414,37.109,57.129,30.273,60.547
1621556155.264,23.926,37.598,55.664,18.066,43.457
1621556155.268,21.973,39.551,53.223,11.719,15.625
1621556155.272,22.461,39.551,55.176,18.066,13.672
1621556155.276,21.973,33.203,54.199,15.625,17.578
1621556155.280,16.113,26.855,53.711,11.719,26.855
1621556155.284,9.277,27.344,56.641,15.137,39.551
1621556155.287,19.043,32.227,51.270,14.648,19.531
1621556155.291,31.250,34.180,49.805,17.578,44.434
1621556155.295,22.461,33.691,47.852,15.625,110.840
1621556155.299,12.695,34.180,44.434,11.230,56.152
1621556155.303,7.324,34.668,47.363,9.766,18.555
1621556155.299,6.348,36.621,46.387,16.113,26.367
1621556155.303,14.160,36.621,44.922,16.602,4.883
1621556155.307,18.555,37.598,48.828,14.648,74.219
1621556155.311,20.508,35.156,47.363,17.578,88.379
1621556155.315,23.438,32.227,44.434,20.020,31.738
1621556155.319,21.484,29.297,42.969,18.555,47.852
1621556155.323,21.973,30.273,43.457,13.184,24.902
1621556155.326,24.414,31.738,40.527,14.160,-15.625
1621556155.330,24.902,27.832,38.574,21.973,36.133
1621556155.334,19.531,29.785,37.109,22.949,28.320
1621556155.338,6.348,33.691,41.992,17.090,-53.711
1621556155.342,6.836,32.715,46.875,17.578,-4.883
1621556155.355,8.789,29.785,45.410,16.602,60.547
1621556155.359,14.160,31.250,44.922,18.066,27.344
1621556155.363,16.113,32.715,44.922,18.555,-36.621
1621556155.367,13.672,31.250,45.410,16.602,-4.395
1621556155.371,22.949,28.320,43.945,21.484,25.391
1621556155.375,28.809,25.879,43.457,28.320,-16.113
1621556155.379,22.949,32.715,40.527,22.461,17.578
1621556155.382,16.113,34.668,39.551,18.555,37.598
1621556155.386,19.531,33.691,38.086,23.926,-15.137
1621556155.390,34.668,38.574,37.598,24.902,-17.090
1621556155.394,38.086,38.574,39.551,25.879,-29.297
1621556155.398,32.715,36.133,38.086,25.391,20.020
1621556155.412,9.277,37.109,40.039,23.926,33.691
1621556155.416,-2.930,34.668,36.621,28.320,-31.250
1621556155.420,7.812,35.156,35.156,24.414,-1.953
1621556155.424,8.301,36.133,36.621,12.695,38.574
1621556155.428,4.883,30.762,35.645,15.625,61.035
1621556155.432,8.789,31.250,36.133,17.090,34.668
1621556155.436,15.137,35.156,38.574,18.555,7.324
1621556155.439,14.648,36.133,40.039,20.020,-12.695
1621556155.443,18.555,33.691,39.062,17.090,32.715
1621556155.447,20.508,35.156,40.039,18.066,94.238
1621556155.451,28.809,37.109,43.457,28.320,40.527
1621556155.455,36.133,40.527,42.480,25.879,37.109
1621556155.504,24.414,38.086,41.992,16.602,49.805
1621556155.508,18.066,33.203,41.504,27.344,52.246
1621556155.512,22.461,35.156,37.109,37.109,-5.859
1621556155.516,22.949,39.551,35.645,28.320,-25.879
1621556155.520,22.461,40.039,39.551,23.438,-26.367
1621556155.524,27.344,39.062,43.945,22.949,-60.059
1621556155.528,30.762,38.086,42.480,21.484,-25.879
1621556155.531,34.180,35.156,41.992,22.461,-23.926
1621556155.535,37.598,34.180,43.457,20.020,-20.020
1621556155.539,27.832,36.621,44.434,14.648,-22.461
1621556155.543,26.855,40.039,47.852,18.555,5.859
1621556155.547,34.668,39.551,43.457,15.137,37.109
1621556155.525,29.785,38.086,40.527,15.137,43.457
1621556155.529,15.625,37.598,46.387,24.414,47.852
1621556155.533,12.695,35.645,46.875,27.832,62.988
1621556155.537,19.531,33.691,47.852,32.715,109.375
1621556155.541,24.414,35.645,49.805,29.785,52.734
1621556155.545,18.555,39.062,47.852,18.066,-14.648
1621556155.549,5.371,35.156,45.898,15.625,17.090
1621556155.552,11.719,32.227,43.457,21.973,8.301
1621556155.556,16.602,34.180,42.480,22.461,-23.438
1621556155.560,15.137,34.180,44.922,18.555,-25.391
1621556155.564,9.766,35.156,46.875,16.113,-20.508
1621556155.568,3.906,33.203,46.387,21.484,-36.621
1621556155.579,8.301,29.785,48.828,28.320,-28.320
1621556155.583,8.301,32.227,52.246,20.508,-14.160
1621556155.587,12.695,35.156,48.828,14.648,36.621
1621556155.591,24.902,35.645,45.898,19.531,56.152
1621556155.595,31.738,34.668,44.434,22.949,57.617
1621556155.599,29.785,34.180,49.805,27.832,97.168
1621556155.603,25.879,34.668,55.176,28.320,108.887
1621556155.606,26.367,34.180,54.199,27.832,4.883
1621556155.610,35.156,35.645,54.688,33.691,5.371
1621556155.614,40.527,38.574,55.176,32.227,47.852
1621556155.618,37.109,41.016,53.711,25.879,51.758
1621556155.622,41.504,38.574,47.852,20.996,89.844
1621556155.618,45.898,34.180,43.945,20.020,6.348
1621556155.622,34.668,34.668,44.922,20.508,-22.949
1621556155.626,22.461,40.527,46.387,9.766,-28.320
1621556155.630,16.113,39.062,42.969,9.766,-98.145
1621556155.634,19.043,36.133,41.992,16.113,-40.527
1621556155.638,31.738,40.039,44.434,25.391,-25.879
1621556155.642,29.785,40.039,45.410,30.762,11.719
1621556155.645,17.090,36.621,42.969,26.855,15.137
1621556155.649,21.973,35.156,40.527,26.367,-2.930
1621556155.653,22.949,30.273,40.039,29.785,59.570
1621556155.657,21.484,30.273,39.062,29.785,20.508
1621556155.661,19.043,33.203,39.551,21.973,20.996
1621556155.655,18.555,29.785,35.645,21.484,77.148
1621556155.659,16.602,30.762,34.180,23.926,71.289
1621556155.663,11.719,31.738,36.133,16.602,20.020
1621556155.667,16.113,30.273,37.109,14.648,33.203
1621556155.671,15.137,28.809,39.062,19.531,51.270
1621556155.675,16.602,25.879,36.621,22.461,4.883
1621556155.679,17.578,26.855,36.133,22.949,16.113
1621556155.682,11.230,28.320,40.039,21.484,4.883
1621556155.686,13.672,29.785,39.551,22.461,-11.230
1621556155.690,10.254,33.203,39.551,27.344,21.484
1621556155.694,9.766,31.250,37.598,28.809,20.996
1621556155.698,16.113,29.297,36.133,24.902,7.812
1621556155.693,11.719,29.785,35.156,19.043,-29.785
1621556155.697,13.184,33.691,32.227,21.973,-27.832
1621556155.701,20.020,35.156,31.738,26.855,23.926
1621556155.705,21.484,34.180,32.715,28.809,1.465
1621556155.709,21.484,34.180,32.715,25.391,-21.973
1621556155.713,26.367,32.715,30.762,20.020,4.395
1621556155.717,34.180,32.715,31.250,24.414,11.719
1621556155.720,36.621,29.785,33.691,22.461,0.000
1621556155.724,26.855,33.691,33.203,16.602,35.156
1621556155.728,21.484,35.645,29.785,17.090,1.465
1621556155.732,28.320,30.273,31.250,21.973,-17.578
1621556155.736,21.973,29.297,32.715,23.438,30.762
1621556155.749,12.207,30.762,30.762,19.531,6.348
1621556155.753,5.859,29.785,30.273,20.996,21.973
1621556155.757,7.812,26.855,32.715,22.461,55.664
1621556155.761,18.066,28.809,36.133,29.297,23.926
1621556155.765,28.809,36.621,39.062,34.668,1.953
1621556155.769,25.879,34.668,39.062,29.297,39.551
1621556155.773,23.438,28.320,38.574,34.180,63.477
1621556155.776,26.367,31.250,38.574,34.668,-5.371
1621556155.780,19.531,36.133,37.109,22.949,-21.973
1621556155.784,18.066,36.621,37.598,15.137,-1.465
1621556155.788,17.090,34.180,36.621,14.160,20.996
1621556155.792,16.113,33.203,38.086,20.020,41.992
1621556155.823,22.461,32.227,38.086,22.461,5.371
1621556155.827,31.250,33.203,39.551,19.043,-29.785
1621556155.831,27.344,32.715,41.016,20.996,38.086
1621556155.835,22.949,31.738,39.062,23.438,28.809
1621556155.839,18.066,31.250,37.598,19.043,34.668
1621556155.843,17.090,30.762,37.109,18.066,88.867
1621556155.847,16.602,30.762,37.598,17.090,49.316
1621556155.850,29.785,29.785,37.598,23.438,8.301
1621556155.854,32.227,34.180,38.086,29.297,26.367
1621556155.858,20.996,35.156,40.527,29.297,34.180
1621556155.862,20.508,32.227,43.457,26.855,-3.906
1621556155.866,22.461,34.180,40.039,20.020,5.371
1621556155.869,9.766,29.297,44.922,18.555,25.879
1621556155.873,4.395,21.973,43.457,21.973,-0.977
1621556155.877,1.465,22.949,41.016,27.832,58.594
1621556155.881,0.977,30.273,42.480,26.367,43.945
1621556155.885,7.812,31.250,47.852,20.996,-5.859
1621556155.898,14.160,29.785,47.852,19.043,5.371
1621556155.902,16.602,31.738,44.922,22.461,39.062
1621556155.906,19.043,29.297,42.969,15.625,69.336
1621556155.910,23.926,28.320,43.457,9.277,-2.441
1621556155.914,23.926,32.227,43.457,12.695,-62.500
1621556155.918,10.254,35.645,43.457,13.184,-18.066
1621556155.922,11.719,32.227,45.410,9.766,-2.441
1621556155.925,16.113,32.227,47.363,1.953,12.695
1621556155.929,13.184,36.621,45.410,-6.348,61.035
1621556155.933,20.508,36.621,41.016,6.348,62.500
1621556155.937,24.902,39.551,42.969,17.578,59.570
1621556155.941,27.832,39.062,44.434,14.160,56.641
1621556155.938,33.691,40.039,44.434,19.043,29.785
1621556155.942,35.156,38.574,48.828,33.691,-0.977
1621556155.946,34.180,36.621,47.852,35.645,-22.949
1621556155.950,34.180,40.039,45.410,23.438,11.230
1621556155.954,23.926,38.086,42.480,18.066,113.281
1621556155.958,14.160,35.645,40.039,21.484,100.098
1621556155.962,22.949,36.133,41.992,23.926,43.945
1621556155.965,32.227,35.645,44.434,19.043,53.711
1621556155.969,28.320,34.668,42.969,13.184,42.969
1621556155.973,25.391,28.809,43.945,17.090,-8.789
1621556155.977,17.578,30.762,48.828,26.367,-21.484
1621556155.981,6.348,35.156,51.758,29.297,9.766
1621556155.992,6.836,33.203,58.594,28.320,-2.930
1621556155.996,5.371,32.227,58.594,22.949,20.508
1621556156.000,3.906,31.250,56.152,17.090,27.344
1621556156.004,2.930,27.344,53.223,10.742,60.059
1621556156.008,0.488,28.320,50.781,1.953,42.480
1621556156.012,4.395,31.738,50.293,0.488,12.207
1621556156.016,16.113,32.715,48.340,8.789,-0.977
1621556156.019,20.508,35.156,48.340,10.742,7.324
1621556156.023,4.395,31.738,46.875,2.930,40.039
1621556156.027,-2.441,31.250,46.875,0.977,47.852
1621556156.031,8.789,32.227,49.316,16.602,59.082
1621556156.035,12.207,28.320,47.852,29.297,20.508
1621556156.029,18.066,30.762,46.387,28.809,-28.320
1621556156.033,28.320,35.156,49.805,27.832,-62.988
1621556156.037,32.227,36.133,50.293,22.461,-11.719
1621556156.041,34.668,34.668,49.316,27.832,36.133
1621556156.045,30.762,32.715,50.293,32.227,34.180
1621556156.049,26.855,34.180,49.316,24.414,26.367
1621556156.053,28.809,34.668,50.781,25.879,25.391
1621556156.056,37.598,36.621,51.270,31.250,11.230
1621556156.060,49.805,38.086,48.340,27.344,-16.113
1621556156.064,41.016,38.086,47.363,21.484,12.695
1621556156.068,18.066,38.086,47.852,23.438,35.645
1621556156.072,6.836,34.668,44.922,28.809,69.824
1621556156.067,10.254,36.133,42.480,33.203,42.480
1621556156.071,17.090,41.504,41.992,25.391,1.953
1621556156.075,20.996,40.039,41.504,17.090,19.531
1621556156.079,14.160,33.691,41.992,20.996,16.602
1621556156.083,6.348,32.715,39.062,20.996,-1.465
1621556156.087,11.719,37.598,36.621,10.742,-20.508
1621556156.091,21.973,43.457,37.598,7.324,-48.828
1621556156.094,29.785,41.504,36.621,6.836,-9.766
1621556156.098,34.668,37.109,32.715,17.578,41.504
1621556156.102,37.109,36.133,33.203,22.949,19.043
1621556156.106,26.855,38.574,35.156,18.066,-12.695
1621556156.110,17.578,39.551,36.133,16.602,20.508
1621556156.106,20.996,35.645,39.062,23.926,7.812
1621556156.110,24.414,29.785,41.504,30.273,-17.578
1621556156.114,22.461,28.809,42.480,24.902,6.836
1621556156.118,22.461,31.738,42.969,17.090,59.082
1621556156.122,28.320,31.738,44.434,18.555,62.012
1621556156.126,31.738,31.250,45.410,24.902,31.738
1621556156.130,31.738,33.203,48.828,26.855,9.277
1621556156.133,28.320,33.691,52.246,20.020,0.000
1621556156.137,24.902,28.809,56.641,24.414,44.922
1621556156.141,33.691,27.344,55.664,28.320,76.172
1621556156.145,36.133,32.715,54.688,24.414,66.895
1621556156.149,18.066,38.086,60.059,27.832,76.172
1621556156.161,5.859,39.062,58.594,28.320,40.039
1621556156.165,5.859,38.574,52.734,31.250,-6.836
1621556156.169,17.090,39.062,51.758,32.715,35.645
1621556156.173,27.832,39.062,54.688,28.809,13.672
1621556156.177,33.691,39.062,48.828,26.855,-2.930
1621556156.181,34.668,39.062,41.504,21.973,65.918
1621556156.185,35.156,35.645,43.457,20.996,31.738
1621556156.188,38.574,35.645,44.922,9.766,-2.930
1621556156.192,28.809,37.109,44.434,-0.977,9.766
1621556156.196,19.531,31.250,44.434,5.371,-19.531
1621556156.200,21.484,26.367,42.969,12.207,10.254
1621556156.204,29.785,33.691,38.574,12.695,21.973
1621556156.217,31.250,40.527,37.109,10.742,44.434
1621556156.221,25.391,40.527,40.527,22.461,83.008
1621556156.225,27.344,41.016,44.922,37.109,50.293
1621556156.229,33.691,40.527,45.898,41.016,3.906
1621556156.233,33.203,37.109,46.387,40.039,-10.254
1621556156.237,31.738,35.156,48.828,37.109,2.930
1621556156.241,23.926,33.691,50.781,31.250,30.273
1621556156.244,19.043,33.203,49.316,28.320,41.504
1621556156.248,17.578,34.668,48.340,27.832,58.105
1621556156.252,17.090,31.250,47.852,22.949,12.207
1621556156.256,17.090,30.273,43.945,27.344,-24.414
1621556156.260,11.719,37.598,43.945,34.668,-2.441
1621556156.256,15.137,40.039,46.875,26.367,-25.391
1621556156.260,19.043,38.574,48.340,23.926,-11.719
1621556156.264,23.926,37.109,46.387,31.250,46.875
1621556156.268,21.484,35.645,44.922,36.133,22.949
1621556156.272,16.602,30.762,49.316,30.762,65.430
1621556156.276,24.414,30.273,51.758,27.832,109.863
1621556156.280,27.832,36.133,49.316,27.832,94.238
1621556156.283,28.320,34.180,51.758,30.762,99.121
1621556156.287,37.598,29.297,51.758,28.320,53.223
1621556156.291,32.715,35.645,46.875,4.883,-27.832
1621556156.295,28.809,40.039,46.875,-3.906,-56.152
1621556156.299,28.809,37.109,46.875,0.488,-11.230
1621556156.311,21.973,36.133,44.434,-5.859,-8.301
1621556156.315,26.367,34.668,46.875,-10.742,-42.969
1621556156.319,27.832,31.250,49.316,-5.859,-13.672
1621556156.323,26.855,33.203,49.805,4.883,29.785
1621556156.327,25.879,32.715,52.734,9.766,-34.668
1621556156.331,17.578,31.250,55.176,19.531,-52.734
1621556156.335,13.672,29.785,53.711,24.902,21.484
1621556156.338,10.742,27.344,53.223,30.273,67.871
1621556156.342,14.648,25.391,54.199,42.969,45.410
1621556156.346,17.578,25.391,54.688,43.457,35.645
1621556156.350,11.230,30.762,54.199,36.133,45.898
1621556156.354,3.906,30.762,51.270,29.785,22.949
1621556156.331,11.719,30.273,49.316,33.203,12.695
1621556156.335,20.996,31.738,50.293,36.621,30.273
1621556156.339,11.230,32.227,49.805,32.227,42.480
1621556156.343,5.859,31.738,45.410,27.832,4.395
1621556156.347,18.066,29.297,39.062,30.273,9.766
1621556156.351,24.414,29.785,41.016,28.809,-12.207
1621556156.355,16.602,34.668,42.969,23.926,-27.832
1621556156.358,19.531,37.109,42.480,21.484,59.570
1621556156.362,26.855,35.156,45.898,21.973,58.594
1621556156.366,32.227,36.133,46.387,26.855,24.902
1621556156.370,36.621,40.039,43.945,25.391,33.203
1621556156.374,26.367,38.086,41.992,15.625,28.809
1621556156.367,22.461,33.203,40.527,16.113,5.371
1621556156.371,34.180,37.598,43.945,24.902,36.621
1621556156.375,36.621,37.109,48.340,24.414,14.648
1621556156.379,26.855,34.180,45.410,19.043,-36.133
1621556156.383,25.391,40.527,43.457,14.648,-40.527
1621556156.387,28.809,40.527,47.852,15.625,-6.836
1621556156.391,30.762,33.203,45.898,14.160,19.043
1621556156.394,30.762,31.738,44.922,1.953,-9.277
1621556156.398,20.020,33.203,46.875,-1.465,-8.301
1621556156.402,11.719,31.738,45.410,10.254,17.578
1621556156.406,15.625,30.762,45.898,19.043,29.297
1621556156.410,17.578,29.785,48.828,15.625,57.617
1621556156.425,8.301,30.273,47.852,12.695,21.484
1621556156.429,4.883,34.180,47.852,21.973,-62.012
1621556156.433,6.836,33.691,48.340,27.832,-45.898
1621556156.437,2.441,30.273,44.922,26.367,-19.043
1621556156.441,7.324,32.227,45.410,23.438,76.660
1621556156.445,20.020,34.668,46.875,30.273,87.402
1621556156.449,33.203,37.598,43.457,36.621,26.855
1621556156.452,35.156,36.621,42.480,32.715,48.828
1621556156.456,26.855,34.668,42.480,32.715,37.598
1621556156.460,19.531,36.621,41.504,30.762,26.855
1621556156.464,17.578,39.551,40.527,33.691,18.555
1621556156.468,22.949,40.039,42.969,39.062,47.852
1621556156.480,25.879,38.086,40.039,29.785,42.969
1621556156.484,23.926,38.086,36.133,18.555,42.969
1621556156.488,23.926,35.156,37.109,19.531,50.781
1621556156.492,33.203,31.738,35.645,25.391,10.742
1621556156.496,24.902,30.273,29.785,15.625,-17.090
1621556156.500,17.578,29.297,27.832,5.859,-22.461
1621556156.504,32.227,32.227,32.715,15.137,-31.250
1621556156.507,23.926,27.832,32.227,18.066,-33.691
1621556156.511,12.207,28.320,28.809,10.254,5.859
1621556156.515,7.324,32.715,28.809,9.277,34.180
1621556156.519,9.766,31.250,30.762,14.648,11.719
1621556156.523,17.578,31.738,32.227,15.137,42.969
1621556156.517,11.719,28.320,29.785,6.836,25.391
1621556156.521,14.648,28.320,28.809,9.277,0.977
1621556156.525,28.809,31.250,29.785,15.137,-2.441
1621556156.529,31.738,32.227,27.832,18.066,20.508
1621556156.533,17.090,33.691,27.344,25.391,29.297
1621556156.537,5.859,32.227,26.855,28.809,22.949
1621556156.541,4.395,30.273,32.227,35.156,46.875
1621556156.544,9.766,30.273,39.062,43.945,37.109
1621556156.548,20.508,34.668,37.598,38.086,27.832
1621556156.552,17.578,35.645,33.691,29.297,43.945
1621556156.556,17.578,33.691,31.738,28.809,13.184
1621556156.560,24.902,36.621,33.203,30.273,34.180
1621556156.573,30.762,37.598,34.668,31.250,23.926
1621556156.577,38.574,38.574,34.668,30.762,51.270
1621556156.581,31.738,36.621,37.598,27.832,66.895
1621556156.585,28.320,35.645,38.574,24.902,29.297
1621556156.589,27.832,40.039,41.016,31.738,22.949
1621556156.593,17.578,34.180,44.922,30.273,13.672
1621556156.597,17.090,29.297,43.457,15.625,10.254
1621556156.600,24.414,34.180,41.504,9.277,-27.344
1621556156.604,35.645,39.551,39.062,10.742,19.531
1621556156.608,32.227,37.109,36.621,16.113,41.504
1621556156.612,15.625,33.203,40.527,14.648,7.324
1621556156.616,19.043,33.691,41.016,17.090,5.859
1621556156.629,25.391,33.203,37.109,27.832,2.930
1621556156.633,22.949,30.762,37.109,21.484,40.039
1621556156.637,18.555,28.809,36.621,10.254,37.109
1621556156.641,16.113,27.832,36.133,1.465,-4.883
1621556156.645,18.066,30.273,38.086,3.906,-18.066
1621556156.649,22.949,30.762,35.645,6.348,4.395
1621556156.653,27.832,27.344,31.250,4.395,20.508
1621556156.656,18.066,28.809,32.715,3.906,8.789
1621556156.660,14.160,27.344,29.297,6.836,17.090
1621556156.664,20.508,25.879,29.785,15.625,62.012
1621556156.668,15.137,27.344,34.180,26.855,57.129
1621556156.672,7.812,27.344,35.645,27.344,56.152
1621556156.649,5.371,29.297,36.133,23.926,9.277
1621556156.653,11.230,33.203,34.180,27.344,19.531
1621556156.657,12.695,33.691,38.574,25.879,91.309
1621556156.661,11.230,29.297,42.480,22.949,62.500
1621556156.665,13.184,24.414,42.969,20.996,25.879
1621556156.669,16.113,26.855,41.016,22.949,61.523
1621556156.673,21.973,27.344,39.062,26.367,8.301
1621556156.676,27.832,33.203,41.504,24.902,-71.777
1621556156.680,33.203,38.574,44.434,18.555,9.766
1621556156.684,44.434,35.156,47.852,18.066,6.836
1621556156.688,52.246,33.203,49.316,25.391,-1.953
1621556156.692,33.203,35.645,49.316,29.785,-26.855
1621556156.686,16.602,36.133,50.781,26.855,-42.969
1621556156.690,24.414,38.574,49.316,22.949,0.977
1621556156.694,26.855,37.598,46.387,25.391,20.020
1621556156.698,26.855,32.715,45.898,25.879,4.395
1621556156.702,25.391,35.645,45.898,19.531,20.020
1621556156.706,17.578,34.180,42.969,18.555,44.922
1621556156.710,20.020,31.250,42.969,21.484,-5.371
1621556156.713,34.180,38.086,44.922,15.625,-59.082
1621556156.717,34.668,39.062,45.898,11.719,-53.711
1621556156.721,19.043,38.086,45.410,13.184,-5.859
1621556156.725,17.578,37.598,42.480,18.555,-26.855
1621556156.729,27.832,31.250,41.992,26.855,-9.766
1621556156.706,36.621,32.227,45.410,25.391,9.766
1621556156.710,38.574,31.738,49.316,20.508,38.574
1621556156.714,24.902,28.809,49.316,20.508,77.148
1621556156.718,20.508,32.715,50.293,23.926,6.836
1621556156.722,25.879,32.227,52.734,29.785,-20.020
1621556156.726,13.672,34.180,48.828,20.020,50.781
1621556156.730,12.695,35.645,45.410,13.184,72.266
1621556156.733,21.973,35.156,42.969,27.832,92.285
1621556156.737,26.367,35.645,39.062,30.273,125.000
1621556156.741,25.879,37.109,38.086,18.066,67.871
1621556156.745,16.113,32.715,40.039,14.160,31.738
1621556156.749,18.066,29.785,39.551,20.020,66.895
1621556156.762,34.668,33.203,36.133,18.555,36.133
1621556156.766,22.461,32.715,38.086,18.555,-3.418
1621556156.770,-3.906,35.156,41.992,20.508,26.367
1621556156.774,5.859,36.621,44.922,20.020,36.133
1621556156.778,18.555,37.598,45.410,23.438,52.246
1621556156.782,19.043,36.621,39.062,20.020,49.805
1621556156.786,27.832,35.645,40.039,14.648,13.184
1621556156.789,35.645,37.109,45.410,17.578,-11.230
1621556156.793,32.227,36.621,49.805,27.832,-42.969
1621556156.797,26.855,35.645,49.805,27.832,-25.391
1621556156.801,28.809,34.180,49.316,18.066,-27.832
1621556156.805,29.785,33.203,49.316,13.184,-6.836
1621556156.818,28.320,34.668,44.922,11.719,-3.906
1621556156.822,31.250,39.551,44.434,19.043,19.043
1621556156.826,25.879,37.598,41.504,15.625,29.297
1621556156.830,19.531,33.691,39.062,13.184,23.926
1621556156.834,19.043,39.062,40.527,26.855,33.203
1621556156.838,25.391,39.062,36.621,30.762,2.441
1621556156.842,26.367,38.086,32.715,27.832,-4.395
1621556156.845,16.113,39.062,33.691,24.902,72.754
1621556156.849,10.742,38.574,36.133,25.391,59.570
1621556156.853,18.066,36.133,38.086,28.809,-4.395
1621556156.857,21.484,36.133,35.645,24.902,30.273
1621556156.861,24.902,37.598,35.645,17.578,33.203
1621556156.892,26.367,36.133,41.504,19.043,65.430
1621556156.896,23.926,36.133,41.504,25.879,91.309
1621556156.900,26.855,35.156,40.527,26.367,68.359
1621556156.904,20.508,37.109,44.434,23.438,45.898
1621556156.908,19.043,38.574,47.363,22.949,98.633
1621556156.912,25.391,35.645,43.945,25.879,69.824
1621556156.916,26.367,39.062,41.016,28.809,-22.949
1621556156.919,28.320,30.762,41.504,24.902,6.836
1621556156.923,26.855,25.391,42.969,19.531,58.105
1621556156.927,27.344,39.062,44.434,19.531,31.250
1621556156.931,36.133,42.969,45.898,26.855,34.668
1621556156.935,39.062,42.480,41.504,21.973,30.762
1621556156.912,34.668,44.434,36.621,13.672,-8.789
1621556156.916,37.598,43.457,37.109,17.578,41.016
1621556156.920,28.809,40.527,38.086,25.879,19.043
1621556156.924,27.832,39.551,38.574,30.762,-23.926
1621556156.928,28.809,36.133,40.527,28.809,7.812
1621556156.932,8.301,35.156,38.574,24.902,48.828
1621556156.936,11.230,35.645,37.109,30.762,66.895
1621556156.939,25.879,35.156,39.062,31.738,41.016
1621556156.943,9.277,31.738,38.086,26.367,41.016
1621556156.947,-3.906,27.832,35.645,25.391,38.086
1621556156.951,-1.953,32.715,35.156,30.273,-48.828
1621556156.955,10.254,36.133,34.180,33.203,-67.383
1621556156.967,16.602,38.574,32.715,30.273,-28.320
1621556156.971,14.160,40.039,29.297,22.461,-57.129
1621556156.975,16.113,36.133,30.762,21.484,-11.719
1621556156.979,20.996,35.645,31.738,27.344,3.906
1621556156.983,24.902,36.621,32.715,28.320,-11.230
1621556156.987,23.926,37.598,35.645,23.926,-19.043
1621556156.991,23.926,39.062,35.156,23.438,-31.250
1621556156.994,25.879,31.250,31.250,24.902,33.691
1621556156.998,23.438,28.320,31.250,18.555,66.895
1621556157.002,20.996,35.645,30.762,9.277,57.617
1621556157.006,29.785,40.039,25.879,7.812,62.012
1621556157.010,37.109,39.062,26.855,16.113,19.043
1621556157.023,34.180,39.551,30.273,17.578,20.020
1621556157.027,34.668,44.922,33.203,14.648,-20.020
1621556157.031,31.738,43.457,32.715,12.207,-49.805
1621556157.035,25.879,38.574,34.668,13.184,-15.137
1621556157.039,26.855,39.551,38.086,20.996,-31.250
1621556157.043,18.555,39.551,38.574,20.996,-26.367
1621556157.047,18.066,35.156,42.480,19.043,-28.320
1621556157.050,24.414,33.691,47.363,23.926,-20.996
1621556157.054,16.113,33.691,45.898,29.297,-18.555
1621556157.058,8.789,32.715,45.898,23.926,-30.762
1621556157.062,-2.441,33.203,47.852,21.973,-2.441
1621556157.066,2.441,33.203,44.922,31.250,2.930
1621556157.061,9.766,29.297,43.457,35.645,39.062
1621556157.065,-0.488,26.855,43.457,37.109,2.441
1621556157.069,-2.930,31.738,42.480,29.785,-43.945
1621556157.073,4.883,36.621,41.504,17.090,-20.996
1621556157.077,14.160,34.180,39.551,23.438,14.648
1621556157.081,22.461,35.645,37.109,31.250,31.250
1621556157.085,24.414,39.551,36.621,32.227,10.254
1621556157.088,27.832,37.598,36.621,19.531,4.883
1621556157.092,30.762,34.180,36.133,16.602,19.531
1621556157.096,33.203,41.016,39.551,21.484,41.016
1621556157.100,29.785,46.875,38.574,9.277,-16.602
1621556157.104,26.855,44.434,34.668,-1.465,-4.883
1621556157.081,27.344,40.527,33.203,0.977,70.801
1621556157.085,31.250,38.086,33.691,6.836,54.199
1621556157.089,34.180,40.039,35.156,7.812,-15.137
1621556157.093,34.668,42.480,33.691,2.930,-9.766
1621556157.097,39.551,40.527,35.645,5.859,-49.316
1621556157.101,42.480,39.551,39.062,15.625,-49.805
1621556157.105,42.969,40.039,38.086,19.531,56.641
1621556157.108,34.668,35.645,38.574,21.973,52.246
1621556157.112,30.762,35.156,40.527,24.414,24.902
1621556157.116,33.203,35.645,41.016,27.344,23.438
1621556157.120,24.414,31.250,39.062,34.180,14.648
1621556157.124,25.391,32.227,41.016,37.598,40.527
1621556157.137,24.414,32.227,43.457,28.809,45.410
1621556157.141,5.859,26.855,41.016,35.156,31.738
1621556157.145,9.277,24.902,43.457,41.504,72.754
1621556157.149,11.719,27.344,46.875,31.250,90.820
1621556157.153,-5.859,26.367,49.805,28.320,29.297
1621556157.157,-10.254,26.855,47.363,23.926,-15.137
1621556157.161,-4.883,31.250,42.480,23.926,19.531
1621556157.164,-3.418,33.203,41.992,19.531,30.762
1621556157.168,-1.953,28.809,41.504,7.324,49.805
1621556157.172,-3.418,25.879,41.992,7.324,28.320
1621556157.176,4.395,29.785,46.875,14.160,-33.203
1621556157.180,18.555,33.203,48.340,12.695,-6.348
1621556157.192,23.438,35.645,46.875,13.672,-27.344
1621556157.196,23.926,35.156,44.922,13.672,-32.715
1621556157.200,20.996,33.203,37.109,7.812,67.383
1621556157.204,21.484,33.691,32.715,12.207,5.859
1621556157.208,26.367,38.086,34.180,10.742,-8.789
1621556157.212,29.785,37.109,33.203,5.859,46.875
1621556157.216,33.691,38.086,30.762,8.301,48.828
1621556157.219,40.039,43.945,31.250,15.137,98.633
1621556157.223,43.457,45.410,27.832,17.578,28.320
1621556157.227,42.480,46.387,23.926,16.602,-7.324
1621556157.231,39.551,42.969,24.414,17.090,34.668
1621556157.235,32.715,40.039,29.297,26.367,15.137
1621556157.230,27.344,39.551,32.715,33.203,18.555
1621556157.234,25.391,38.086,31.738,26.855,54.199
1621556157.238,19.043,38.086,30.273,24.414,122.559
1621556157.242,14.160,34.668,26.855,27.344,95.215
1621556157.246,14.160,34.668,27.344,28.809,109.375
1621556157.250,4.883,38.086,29.785,30.273,72.266
1621556157.254,2.930,38.086,27.832,26.367,11.719
1621556157.257,9.277,36.133,20.508,29.785,51.270
1621556157.261,1.465,35.156,20.508,36.621,-3.906
1621556157.265,-2.441,36.133,24.902,27.344,8.789
1621556157.269,5.859,39.062,28.809,17.578,60.547
1621556157.273,6.836,37.598,30.273,21.973,41.016
1621556157.286,5.859,33.203,28.320,22.949,47.363
1621556157.290,8.301,32.715,30.273,24.414,24.902
1621556157.294,19.043,35.156,32.227,26.367,0.000
1621556157.298,32.227,36.621,34.668,24.414,10.254
1621556157.302,37.109,38.086,31.250,19.043,-6.836
1621556157.306,43.457,40.039,29.297,16.113,-19.531
1621556157.310,44.922,40.527,30.762,16.113,-10.742
1621556157.313,36.621,40.527,30.762,15.137,15.137
1621556157.317,36.621,40.527,29.785,22.461,31.250
1621556157.321,37.598,38.574,30.273,25.879,-5.371
1621556157.325,30.273,36.133,34.180,25.879,-45.898
1621556157.329,29.785,33.203,32.227,20.996,-5.859
1621556157.342,36.133,36.621,28.320,17.090,59.570
1621556157.346,42.969,41.504,27.832,23.438,20.508
1621556157.350,37.109,41.016,28.320,22.461,-12.207
1621556157.354,21.973,40.527,29.297,15.137,30.762
1621556157.358,16.602,43.945,29.785,18.555,37.109
1621556157.362,20.508,42.969,32.227,28.320,-13.184
1621556157.366,20.020,41.504,33.691,27.832,22.461
1621556157.369,12.207,40.527,30.273,20.996,29.297
1621556157.373,8.301,34.180,31.738,25.391,37.109
1621556157.377,17.090,30.273,30.273,31.738,47.852
1621556157.381,15.625,32.227,27.344,26.367,64.941
1621556157.385,1.465,36.621,28.809,20.020,74.707
1621556157.380,-0.977,41.016,29.297,13.672,-10.254
1621556157.384,5.859,39.062,28.809,16.602,46.875
1621556157.388,14.160,34.180,30.273,15.625,102.051
1621556157.392,5.859,32.715,29.785,6.348,47.363
1621556157.396,-0.488,34.180,29.297,1.465,20.020
1621556157.400,6.348,31.738,30.273,3.418,40.527
1621556157.404,19.531,29.785,33.203,14.648,3.906
1621556157.407,37.109,33.203,34.668,16.113,-67.383
1621556157.411,26.855,31.738,35.645,14.648,-24.414
1621556157.415,17.578,27.344,37.109,18.066,-19.531
1621556157.419,30.273,26.367,36.621,27.832,-3.906
1621556157.423,34.180,33.203,35.156,28.320,-25.391
1621556157.417,34.668,33.691,36.133,18.066,-21.973
1621556157.421,32.227,28.320,35.156,18.066,41.504
1621556157.425,33.691,29.297,29.785,18.066,19.531
1621556157.429,34.668,32.715,29.785,18.066,12.207
1621556157.433,26.855,36.133,33.203,16.113,59.082
1621556157.437,16.602,41.992,35.156,7.812,59.570
1621556157.441,11.719,42.480,39.062,15.137,10.742
1621556157.444,10.254,38.574,44.434,22.949,35.156
1621556157.448,6.836,39.062,45.410,24.902,22.461
1621556157.452,13.672,36.621,41.992,23.438,-1.465
1621556157.456,14.648,33.203,36.133,18.555,29.785
1621556157.460,7.812,33.691,36.133,22.949,38.086
1621556157.437,9.277,34.180,39.551,26.367,59.570
1621556157.441,10.742,33.691,39.551,26.367,83.008
1621556157.445,14.648,35.156,40.039,24.414,44.922
1621556157.449,15.625,35.645,41.016,23.438,36.133
1621556157.453,15.137,35.156,41.504,24.414,43.945
1621556157.457,20.508,38.574,39.551,16.113,3.906
1621556157.461,28.809,43.945,37.598,8.301,43.457
1621556157.464,31.738,37.598,39.062,12.695,60.059
1621556157.468,18.066,30.762,42.480,26.855,17.090
1621556157.472,7.812,35.645,42.480,27.832,-31.250
1621556157.476,6.348,35.156,39.551,18.555,-18.555
1621556157.480,17.090,29.785,38.574,23.926,14.160
1621556157.492,21.973,28.320,37.598,23.926,-34.180
1621556157.496,15.137,33.203,37.598,18.555,-23.926
1621556157.500,21.484,30.273,35.156,17.090,44.922
1621556157.504,26.367,26.367,35.156,16.113,44.434
1621556157.508,30.762,31.250,34.180,21.484,94.727
1621556157.512,37.109,30.273,32.227,20.508,76.172
1621556157.516,44.434,29.297,30.273,13.672,37.598
1621556157.519,41.504,31.250,28.809,11.719,37.109
1621556157.523,35.156,30.762,27.832,22.949,11.230
1621556157.527,30.273,28.809,29.297,28.320,4.395
1621556157.531,24.414,28.320,31.250,14.160,72.754
1621556157.535,22.949,28.320,31.738,12.695,40.039
1621556157.549,27.344,33.691,28.809,17.578,-11.230
1621556157.553,33.691,37.109,27.832,12.695,-3.906
1621556157.557,11.719,31.250,30.273,12.207,-8.301
1621556157.561,-9.277,25.879,32.715,13.184,10.254
1621556157.565,-1.465,27.344,33.203,15.137,13.672
1621556157.569,4.395,33.691,34.668,15.137,13.672
1621556157.573,-1.953,34.180,37.598,14.648,3.906
1621556157.576,-1.465,33.691,41.016,20.020,8.301
1621556157.580,9.277,31.250,39.062,20.996,9.277
1621556157.584,14.648,31.738,32.715,25.391,5.371
1621556157.588,11.719,31.738,28.320,22.461,39.551
1621556157.592,17.578,31.250,29.297,16.113,30.273
1621556157.606,20.996,32.715,32.715,25.879,10.254
1621556157.610,27.344,30.273,31.250,31.250,14.648
1621556157.614,34.668,25.391,32.715,32.227,23.438
1621556157.618,30.273,25.879,31.738,23.926,29.785
1621556157.622,18.555,27.344,31.250,11.230,21.973
1621556157.626,18.555,27.344,34.668,13.672,-22.461
1621556157.630,20.996,16.602,34.180,20.996,17.578
1621556157.633,11.719,18.066,36.133,14.648,60.547
1621556157.637,12.207,32.227,40.039,4.395,21.973
1621556157.641,19.531,30.273,38.574,11.719,24.414
1621556157.645,23.926,29.785,38.086,21.973,45.898
1621556157.649,21.973,34.668,36.133,17.090,59.570
1621556157.662,16.113,34.180,34.668,9.277,50.781
1621556157.666,22.949,32.715,36.133,12.695,41.016
1621556157.670,34.668,34.180,38.086,23.926,37.598
1621556157.674,42.969,34.180,38.086,26.367,12.207
1621556157.678,43.457,32.227,36.133,26.855,5.859
1621556157.682,28.809,34.180,38.086,28.809,-33.203
1621556157.686,23.438,36.621,39.062,32.715,-9.766
1621556157.689,19.043,36.621,39.062,27.832,13.184
1621556157.693,19.531,41.504,40.527,26.367,-24.902
1621556157.697,21.973,41.016,39.062,24.902,-6.348
1621556157.701,26.367,37.109,34.180,17.090,23.438
1621556157.705,33.691,38.086,38.086,20.508,30.762
1621556157.700,36.133,35.645,44.434,19.531,15.625
1621556157.704,33.691,35.645,46.387,18.066,39.062
1621556157.708,33.203,35.645,47.852,28.809,48.828
1621556157.712,30.273,36.133,47.852,31.250,-2.930
1621556157.716,26.367,35.156,46.387,27.832,10.742
1621556157.720,27.344,29.297,46.875,25.391,57.617
1621556157.724,27.832,29.297,44.922,16.113,17.578
1621556157.727,26.855,31.738,46.875,16.602,-4.883
1621556157.731,19.043,30.762,49.805,20.020,47.363
1621556157.735,8.301,28.809,47.363,10.254,20.508
1621556157.739,8.301,29.297,45.898,6.348,-15.137
1621556157.743,11.719,30.273,44.922,14.648,11.230
1621556157.756,9.277,31.250,44.434,17.090,12.207
1621556157.760,6.836,31.738,43.457,0.000,45.410
1621556157.764,4.395,33.203,47.852,-2.441,100.098
1621556157.768,13.184,33.203,47.363,6.836,32.227
1621556157.772,25.391,35.156,43.457,10.742,-0.488
1621556157.776,26.855,34.668,43.945,14.160,51.758
1621556157.780,24.414,31.250,45.898,18.555,14.160
1621556157.783,31.738,29.785,48.340,25.879,31.250
1621556157.787,37.109,29.785,47.852,31.250,71.289
1621556157.791,34.668,31.250,53.223,28.320,17.578
1621556157.795,34.180,33.203,55.176,22.461,8.789
1621556157.799,37.598,35.645,50.293,22.461,44.434
1621556157.830,33.691,35.645,50.781,28.320,8.789
1621556157.834,27.832,34.668,54.199,27.344,27.832
1621556157.838,30.273,34.668,54.199,24.902,68.359
1621556157.842,24.414,34.668,50.293,28.320,-3.906
1621556157.846,14.160,35.156,48.828,33.203,-23.438
1621556157.850,15.137,38.086,51.758,35.156,0.977
1621556157.854,17.578,40.039,47.852,29.297,-15.625
1621556157.857,19.043,35.645,43.457,21.484,-24.902
1621556157.861,24.414,31.250,43.945,19.531,15.137
1621556157.865,25.391,34.180,43.457,20.508,26.855
1621556157.869,11.719,36.133,41.016,19.531,42.969
1621556157.873,3.906,35.156,38.574,11.719,16.602
1621556157.905,6.836,36.133,39.551,10.254,26.855
1621556157.909,19.531,39.551,44.434,23.926,48.340
1621556157.913,21.973,39.062,43.945,20.508,-21.973
1621556157.917,14.648,34.668,43.457,11.230,-26.367
1621556157.921,15.625,32.227,44.922,12.207,-7.324
1621556157.925,13.672,33.203,42.969,12.207,-3.418
1621556157.929,12.695,31.738,44.922,17.090,-4.883
1621556157.932,11.719,32.227,47.852,17.578,18.066
1621556157.936,11.719,33.203,50.781,16.602,37.109
1621556157.940,19.531,33.691,51.270,22.461,8.789
1621556157.944,29.785,36.621,51.270,25.391,-4.883
1621556157.948,29.785,37.598,52.246,18.555,13.184
1621556157.961,24.902,33.203,53.223,18.066,21.484
1621556157.965,24.902,34.180,56.641,24.902,-16.602
1621556157.969,28.320,33.203,57.129,31.738,5.859
1621556157.973,32.715,30.273,57.129,31.250,54.688
1621556157.977,40.527,31.738,55.664,26.855,64.941
1621556157.981,33.203,29.297,52.246,30.273,62.500
1621556157.985,25.391,30.273,53.711,34.668,38.574
1621556157.988,19.531,30.273,51.270,30.762,-8.301
1621556157.992,13.184,29.297,46.387,24.902,7.324
1621556157.996,14.160,32.715,45.898,24.902,45.898
1621556158.000,11.719,32.227,45.898,29.297,50.781
1621556158.004,7.812,33.691,43.457,24.414,14.160
1621556157.981,6.348,30.762,44.434,13.184,18.555
1621556157.985,1.465,27.344,44.922,8.301,67.383
1621556157.989,-4.883,34.180,41.992,12.695,29.785
1621556157.993,3.418,35.645,41.504,18.066,2.930
1621556157.997,8.301,35.156,43.457,14.160,-32.227
1621556158.001,7.812,35.156,43.945,4.883,-3.906
1621556158.005,14.160,38.086,40.039,10.742,50.781
1621556158.008,22.461,36.133,39.551,19.531,77.148
1621556158.012,30.762,33.691,44.922,27.832,26.367
1621556158.016,22.949,37.598,48.340,28.320,-14.648
1621556158.020,20.508,35.645,46.387,27.832,65.430
1621556158.024,36.621,33.203,44.434,34.668,23.438
1621556158.037,53.223,35.156,43.945,32.227,-8.789
1621556158.041,46.387,37.598,40.039,24.414,16.113
1621556158.045,27.832,36.133,39.551,23.438,24.902
1621556158.049,25.879,34.668,41.016,31.738,-5.371
1621556158.053,37.598,37.598,45.898,40.039,-1.953
1621556158.057,39.551,36.133,47.852,33.203,14.648
1621556158.061,30.273,31.250,43.945,18.066,27.832
1621556158.064,26.855,29.297,44.922,20.508,-7.324
1621556158.068,26.855,35.645,47.363,26.855,-44.922
1621556158.072,30.762,38.086,44.922,16.602,-2.441
1621556158.076,25.879,38.086,43.945,7.324,-33.203
1621556158.080,18.066,36.133,40.039,6.348,-21.484
1621556158.056,17.090,36.133,37.598,7.812,55.664
1621556158.060,9.277,32.227,38.086,13.184,41.992
1621556158.064,3.906,29.785,38.086,18.066,52.246
1621556158.068,8.301,33.691,39.062,21.484,40.039
1621556158.072,12.207,34.668,35.645,24.902,6.836
1621556158.076,19.043,34.180,31.738,26.367,0.977
1621556158.080,27.344,35.645,38.086,24.902,45.410
1621556158.083,30.762,37.109,46.387,23.438,86.914
1621556158.087,32.715,33.691,42.969,28.320,15.625
1621556158.091,35.645,35.156,43.945,33.203,15.625
1621556158.095,40.039,40.039,50.293,33.203,45.898
1621556158.099,38.574,37.598,49.316,30.762,4.395
1621556158.093,31.738,34.668,47.852,38.574,20.020
1621556158.097,31.250,35.156,50.293,46.875,43.945
1621556158.101,35.645,34.180,52.734,39.551,20.996
1621556158.105,39.062,31.738,50.293,30.762,6.348
1621556158.109,39.062,36.621,46.875,24.414,-62.988
1621556158.113,37.598,41.992,48.340,29.297,-18.555
1621556158.117,24.902,41.992,50.293,28.809,48.340
1621556158.120,11.230,33.691,51.758,19.531,14.160
1621556158.124,13.184,31.250,47.852,21.484,29.785
1621556158.128,14.648,34.180,41.016,21.484,45.898
1621556158.132,8.301,34.668,39.062,9.277,25.391
1621556158.136,4.883,35.645,41.504,-1.953,45.898
1621556158.149,4.395,33.203,43.945,-1.953,66.406
1621556158.153,11.230,30.273,44.922,6.348,41.504
1621556158.157,26.367,33.203,44.922,8.301,69.824
1621556158.161,26.855,36.621,45.410,6.836,53.711
1621556158.165,17.578,33.691,45.410,6.348,13.184
1621556158.169,22.949,36.621,43.945,8.789,65.430
1621556158.173,18.555,35.156,45.410,17.578,26.367
1621556158.176,5.371,28.320,45.410,20.020,49.316
1621556158.180,5.371,37.109,44.922,16.602,48.828
1621556158.184,16.602,40.039,44.922,22.461,-35.645
1621556158.188,20.020,36.621,45.410,24.902,-66.895
1621556158.192,20.020,37.109,42.969,29.297,-95.703
1621556158.204,24.902,36.621,42.969,29.785,-20.020
1621556158.208,25.879,38.574,42.969,21.973,18.066
1621556158.212,22.461,41.016,41.992,26.855,34.668
1621556158.216,25.879,41.016,41.992,31.250,23.926
1621556158.220,29.785,43.457,39.551,25.391,26.855
1621556158.224,34.180,44.434,40.039,26.855,37.109
1621556158.228,27.832,39.551,41.504,31.738,15.625
1621556158.231,20.020,35.156,42.480,34.668,-2.930
1621556158.235,26.367,34.180,43.457,35.156,-8.789
1621556158.239,25.879,35.645,41.016,29.297,-0.488
1621556158.243,25.879,37.598,38.086,28.320,-39.551
1621556158.247,33.203,34.180,40.527,35.156,-24.414
1621556158.244,29.785,33.691,40.527,32.227,71.777
1621556158.248,17.578,33.691,42.480,26.367,76.660
1621556158.252,14.648,31.250,45.410,22.949,29.297
1621556158.256,3.418,30.273,39.551,16.602,-5.859
1621556158.260,0.000,30.273,35.156,6.348,20.020
1621556158.264,3.906,32.715,36.621,-2.930,79.590
1621556158.268,7.324,34.180,35.645,-2.930,30.762
1621556158.271,6.836,26.855,34.668,1.953,63.477
1621556158.275,1.465,23.926,34.180,10.742,67.383
1621556158.279,5.371,30.762,33.203,17.090,15.625
1621556158.283,15.137,32.227,33.203,11.230,10.742
1621556158.287,22.461,33.203,33.691,10.254,34.668
1621556158.299,25.391,33.691,37.109,21.484,56.152
1621556158.303,35.645,33.203,40.527,21.484,55.664
1621556158.307,35.645,37.109,45.898,10.254,-5.371
1621556158.311,30.273,38.574,50.293,9.766,-36.133
1621556158.315,35.156,33.691,51.758,23.438,2.930
1621556158.319,33.203,33.203,48.340,28.320,8.789
1621556158.323,33.691,37.109,49.316,20.020,12.207
1621556158.326,29.297,35.645,53.711,22.461,-0.977
1621556158.330,13.184,35.645,53.223,27.832,55.176
1621556158.334,9.766,39.551,53.223,28.809,104.492
1621556158.338,12.207,40.039,56.152,36.133,112.793
1621556158.342,9.277,36.133,61.523,38.086,45.410
1621556158.338,12.695,34.668,64.453,35.645,-22.949
1621556158.342,20.020,34.668,66.406,41.016,-9.766
1621556158.346,18.066,34.668,66.895,37.109,-30.762
1621556158.350,18.555,37.598,62.012,23.926,-69.336
1621556158.354,20.996,37.109,56.152,22.949,-54.199
1621556158.358,27.344,33.691,54.688,23.438,-35.645
1621556158.362,19.531,36.133,53.223,8.301,-33.691
1621556158.365,5.859,37.109,54.199,-3.906,-18.066
1621556158.369,6.348,33.203,53.223,-2.930,-15.625
1621556158.373,8.301,35.156,52.246,6.348,49.316
1621556158.377,6.348,35.645,53.223,1.465,52.246
1621556158.381,-2.441,30.762,52.734,-10.742,19.531
1621556158.392,-6.348,29.297,48.340,-11.230,16.602
1621556158.396,1.953,32.715,44.922,-3.418,27.344
1621556158.400,13.672,33.691,47.852,7.324,14.160
1621556158.404,11.719,31.738,52.734,12.207,-20.508
1621556158.408,13.672,33.203,54.199,14.160,5.859
1621556158.412,24.414,35.645,53.223,22.461,34.668
1621556158.416,29.297,36.133,51.270,24.414,54.199
1621556158.419,30.762,38.086,48.340,22.461,59.570
1621556158.423,29.297,38.574,49.805,27.344,35.645
1621556158.427,34.180,37.109,49.316,28.809,59.570
1621556158.431,31.250,33.203,47.363,24.902,64.453
1621556158.435,19.531,32.227,47.852,20.996,-38.574
1621556158.430,15.625,38.574,45.410,15.137,-38.086
1621556158.434,11.719,38.574,44.434,15.137,65.430
1621556158.438,10.254,35.156,41.992,20.996,24.414
1621556158.442,19.043,39.551,41.504,28.320,0.000
1621556158.446,22.949,40.527,43.457,23.438,11.230
1621556158.450,9.277,35.156,44.922,20.020,28.809
1621556158.454,6.836,33.203,44.922,38.086,58.105
1621556158.457,17.090,36.133,42.969,38.086,56.641
1621556158.461,20.020,38.574,38.086,22.949,24.902
1621556158.465,23.926,36.133,34.668,14.648,-3.906
1621556158.469,24.902,33.203,34.668,17.090,10.254
1621556158.473,27.832,34.668,36.133,23.438,6.836
1621556158.467,32.227,39.062,37.598,17.090,19.531
1621556158.471,31.738,41.016,35.156,3.906,20.996
1621556158.475,32.227,39.062,33.691,1.953,0.000
1621556158.479,33.203,39.062,31.738,8.301,19.043
1621556158.483,25.879,41.992,32.227,0.977,32.715
1621556158.487,17.578,40.039,30.273,-4.883,26.367
1621556158.491,14.160,34.180,29.785,5.859,22.461
1621556158.494,16.113,35.156,33.203,16.602,-2.441
1621556158.498,12.207,37.598,33.691,19.043,-13.184
1621556158.502,-7.324,35.645,33.691,19.043,-19.531
1621556158.506,-17.090,33.691,36.133,26.367,-38.086
1621556158.510,-1.953,34.668,36.621,30.762,10.742
1621556158.523,7.812,38.574,34.668,25.879,9.277
1621556158.527,10.742,42.969,39.062,26.855,-25.391
1621556158.531,14.648,43.457,42.480,30.762,50.781
1621556158.535,18.555,41.992,42.480,33.691,19.531
1621556158.539,29.785,40.527,43.457,38.086,-64.453
1621556158.543,35.645,38.086,45.410,41.992,-44.434
1621556158.547,35.156,39.551,43.945,34.668,11.719
1621556158.550,35.156,40.039,45.898,32.715,66.406
1621556158.554,38.574,38.086,47.363,36.133,44.434
1621556158.558,30.762,36.621,43.457,20.996,68.848
1621556158.562,18.555,41.992,41.016,11.230,76.660
1621556158.566,22.461,44.922,43.945,15.625,32.227
1621556158.563,30.762,41.016,45.410,20.508,23.438
1621556158.567,27.832,38.574,43.945,23.438,11.719
1621556158.571,15.137,38.086,43.945,21.973,8.789
1621556158.575,19.531,39.062,43.457,19.531,30.273
1621556158.579,20.508,35.156,41.504,21.973,20.508
1621556158.583,15.137,35.156,38.574,20.996,-5.371
1621556158.587,20.020,35.645,43.457,17.578,26.855
1621556158.590,20.996,33.691,45.898,7.812,-1.953
1621556158.594,16.113,29.297,41.504,-3.906,-46.387
1621556158.598,12.207,28.320,44.434,-5.371,21.973
1621556158.602,13.184,33.691,47.363,1.465,52.246
1621556158.606,10.742,32.227,46.387,4.883,52.734
1621556158.617,13.672,29.297,48.828,19.531,67.383
1621556158.621,22.949,28.320,47.363,34.668,32.227
1621556158.625,23.438,29.297,40.039,27.832,3.906
1621556158.629,16.113,34.668,35.645,18.555,24.414
1621556158.633,11.719,39.062,39.062,13.672,68.359
1621556158.637,16.113,38.574,42.969,19.531,64.453
1621556158.641,20.508,34.668,41.992,23.926,-24.414
1621556158.644,24.902,30.762,45.898,20.020,-42.969
1621556158.648,34.180,29.297,49.805,23.438,28.809
1621556158.652,40.527,33.203,48.340,28.320,3.418
1621556158.656,38.086,37.109,46.387,27.344,-0.977
1621556158.660,34.180,37.598,47.363,27.832,55.176
1621556158.656,23.926,35.645,47.363,26.855,6.348
1621556158.660,19.531,31.738,41.504,20.996,18.066
1621556158.664,26.855,31.738,41.504,25.879,51.270
1621556158.668,29.297,36.133,45.410,35.156,12.695
1621556158.672,26.855,35.645,48.340,27.832,-2.441
1621556158.676,28.320,34.180,49.805,24.902,44.434
1621556158.680,36.621,39.551,52.246,37.109,29.785
1621556158.683,35.156,38.086,53.223,34.180,-6.348
1621556158.687,25.391,31.738,49.316,25.879,22.949
1621556158.691,16.602,34.668,48.340,20.996,57.129
1621556158.695,15.625,43.457,47.363,14.160,46.875
1621556158.699,23.926,42.480,44.922,10.742,-4.395
1621556158.712,23.926,39.062,44.434,10.254,16.113
1621556158.716,21.973,40.039,44.434,12.695,21.484
1621556158.720,29.785,37.598,46.387,17.090,-12.695
1621556158.724,27.832,33.691,42.480,21.973,-0.977
1621556158.728,13.184,30.762,39.551,23.926,63.965
1621556158.732,12.207,28.809,42.480,23.438,-25.391
1621556158.736,19.531,24.902,41.504,23.438,-58.594
1621556158.739,20.508,25.879,38.086,22.461,10.742
1621556158.743,22.949,30.762,37.109,25.391,5.859
1621556158.747,22.949,33.203,40.527,26.367,-21.973
1621556158.751,20.996,35.156,42.480,25.879,-11.719
1621556158.755,22.949,36.133,39.551,28.809,25.879
1621556158.750,13.672,32.715,39.551,30.762,25.391
1621556158.754,10.742,29.785,42.480,25.879,30.762
1621556158.758,16.113,30.762,44.434,23.438,53.223
1621556158.762,22.949,31.738,45.898,27.344,18.555
1621556158.766,22.461,29.785,45.410,31.250,15.625
1621556158.770,24.902,29.297,44.922,29.297,25.879
1621556158.774,41.016,36.621,44.434,24.414,1.465
1621556158.777,33.203,36.133,41.992,21.973,9.277
1621556158.781,21.484,39.062,43.457,26.367,47.852
1621556158.785,36.621,47.852,43.945,25.879,43.945
1621556158.789,39.551,46.875,42.480,16.602,-8.789
1621556158.793,32.227,41.504,44.434,17.578,-24.902
1621556158.787,33.203,41.016,43.457,12.207,31.250
1621556158.791,22.461,41.504,45.898,5.371,67.383
1621556158.795,8.789,37.598,51.270,9.277,31.738
1621556158.799,-1.953,33.203,53.223,7.324,29.785
1621556158.803,-0.977,28.809,55.664,13.184,6.836
1621556158.807,8.301,32.227,57.617,26.367,-32.715
1621556158.811,6.836,35.156,56.641,20.508,-55.664
1621556158.814,5.371,34.180,54.688,15.137,-4.883
1621556158.818,15.625,35.156,52.734,20.508,71.777
1621556158.822,25.879,37.598,50.293,21.484,89.355
1621556158.826,24.902,36.133,48.340,20.020,79.590
1621556158.830,24.414,34.180,45.898,16.602,90.332
1621556158.880,30.762,38.086,43.945,14.160,72.754
1621556158.884,35.645,36.621,42.969,18.555,46.875
1621556158.888,36.621,33.203,45.898,22.461,19.043
1621556158.892,28.809,32.227,45.410,21.973,25.879
1621556158.896,20.020,27.344,42.969,26.367,30.762
1621556158.900,19.531,27.344,45.898,35.156,45.898
1621556158.904,19.531,35.156,49.805,39.551,83.496
1621556158.907,20.996,35.645,48.828,32.227,28.809
1621556158.911,15.137,32.227,48.340,22.949,-44.434
1621556158.915,14.160,34.668,50.293,23.926,2.930
1621556158.919,11.719,36.133,49.805,20.020,17.090
1621556158.923,12.695,34.180,46.387,13.184,12.695
1621556158.899,20.020,35.645,45.898,8.789,78.613
1621556158.903,21.484,38.574,46.387,9.277,18.555
1621556158.907,23.926,35.645,43.457,11.719,-53.711
1621556158.911,18.066,31.250,41.504,8.789,-35.156
1621556158.915,7.812,36.133,41.016,3.906,25.879
1621556158.919,6.836,40.039,41.504,0.488,34.668
1621556158.923,5.371,37.109,40.527,2.441,72.754
1621556158.926,-0.488,31.250,41.992,0.977,16.113
1621556158.930,1.465,31.250,44.922,1.953,-42.480
1621556158.934,10.742,33.691,42.480,6.836,6.836
1621556158.938,14.648,35.645,41.992,10.742,-19.043
1621556158.942,16.602,36.133,42.969,17.090,16.602
1621556158.973,28.809,28.809,46.387,20.996,48.340
1621556158.977,34.180,34.180,46.387,27.344,-4.395
1621556158.981,23.438,43.457,40.039,31.250,2.930
1621556158.985,19.043,41.992,34.668,26.367,38.086
1621556158.989,21.484,44.434,33.203,15.137,49.805
1621556158.993,20.020,42.969,35.156,8.789,-13.672
1621556158.997,18.555,35.645,37.598,16.602,-36.133
1621556159.000,17.578,34.180,40.039,21.484,38.574
1621556159.004,13.672,35.156,39.551,17.090,47.852
1621556159.008,14.160,38.574,41.016,9.277,4.883
1621556159.012,20.020,40.039,42.969,4.395,40.527
1621556159.016,32.227,36.133,40.527,11.230,18.555
1621556158.994,36.133,38.574,41.016,13.672,-76.172
1621556158.998,42.969,42.969,45.410,9.766,-78.613
1621556159.002,41.504,38.574,47.852,6.836,-27.832
1621556159.006,30.762,33.203,44.922,9.766,7.812
1621556159.010,35.156,38.086,44.922,14.160,26.367
1621556159.014,34.668,42.969,48.828,14.160,17.090
1621556159.018,23.926,41.016,48.828,11.719,20.508
1621556159.021,21.484,38.574,47.363,15.625,-11.719
1621556159.025,35.156,37.109,48.340,19.531,-10.254
1621556159.029,37.109,39.551,53.711,12.207,21.973
1621556159.033,22.949,40.527,56.641,12.695,62.500
1621556159.037,13.672,42.480,61.523,22.461,69.824
1621556159.087,13.672,43.457,63.965,30.762,25.391
1621556159.091,12.207,41.504,61.035,28.809,-17.578
1621556159.095,14.160,38.086,60.547,21.484,20.508
1621556159.099,14.160,36.621,61.035,19.043,62.988
1621556159.103,19.043,38.574,58.105,22.949,47.363
1621556159.107,28.320,40.039,58.105,24.414,3.906
1621556159.111,27.344,40.527,56.152,20.020,13.672
1621556159.114,20.996,36.621,54.688,20.508,22.949
1621556159.118,19.043,33.691,54.199,29.785,-5.859
1621556159.122,24.902,36.133,52.246,25.391,15.625
1621556159.126,24.902,37.109,54.199,20.508,48.828
1621556159.130,19.043,36.133,55.664,20.996,75.195
1621556159.198,27.832,34.668,53.711,19.043,53.223
1621556159.202,31.738,36.133,54.199,25.879,10.254
1621556159.206,27.832,36.621,56.641,20.996,-22.461
1621556159.210,23.438,32.227,54.688,11.230,-16.113
1621556159.214,24.414,33.203,54.199,14.648,-2.441
1621556159.218,29.785,36.133,53.711,16.602,5.371
1621556159.222,31.250,36.133,51.270,13.184,13.672
1621556159.225,33.691,35.645,45.410,5.371,41.504
1621556159.229,37.598,36.621,39.551,11.230,110.840
1621556159.233,23.438,33.691,39.062,22.949,67.871
1621556159.237,10.742,30.762,40.527,24.414,-30.762
1621556159.241,10.742,31.738,42.969,26.855,54.199
1621556159.219,4.883,31.738,39.551,22.949,104.004
1621556159.223,17.090,32.227,38.574,24.414,54.688
1621556159.227,24.414,30.762,41.016,26.367,56.641
1621556159.231,16.602,33.203,40.039,26.367,51.758
1621556159.235,11.230,36.133,38.574,22.949,15.625
1621556159.239,19.043,34.668,36.621,25.391,-17.090
1621556159.243,26.855,36.621,36.133,35.645,0.000
1621556159.246,25.879,34.180,35.156,30.762,-21.484
1621556159.250,26.367,27.832,36.621,32.715,-3.418
1621556159.254,24.414,32.227,36.621,38.574,10.742
1621556159.258,31.738,35.156,39.551,37.598,15.137
1621556159.262,40.527,36.621,43.457,38.086,3.906
1621556159.292,37.109,35.156,41.504,25.879,49.316
1621556159.296,21.484,33.203,40.039,11.230,125.000
1621556159.300,17.090,32.715,40.039,10.742,52.246
1621556159.304,16.602,31.738,41.016,12.207,10.254
1621556159.308,12.695,34.180,40.527,3.418,-5.371
1621556159.312,14.648,36.133,41.992,-5.371,-2.930
1621556159.316,18.555,37.598,41.016,-0.488,18.555
1621556159.319,23.926,32.227,39.062,14.160,69.824
1621556159.323,24.414,28.809,39.062,13.672,41.992
1621556159.327,18.066,32.715,35.645,9.766,-41.504
1621556159.331,23.438,34.180,34.668,14.648,15.625
1621556159.335,28.809,33.691,33.691,16.113,12.207
1621556159.312,25.879,31.250,31.738,18.066,-8.301
1621556159.316,20.508,30.762,32.715,21.484,19.043
1621556159.320,14.648,34.180,35.156,25.391,60.547
1621556159.324,11.230,35.156,35.645,27.832,53.223
1621556159.328,20.996,33.691,33.691,22.461,86.426
1621556159.332,27.832,33.691,33.203,13.184,60.547
1621556159.336,26.855,32.715,34.180,14.648,21.973
1621556159.339,26.855,26.855,33.691,23.438,60.547
1621556159.343,16.602,27.832,35.645,28.320,-5.859
1621556159.347,4.395,28.320,34.668,25.879,-16.113
1621556159.351,2.930,28.320,32.715,21.484,67.383
1621556159.355,4.395,28.809,33.203,21.973,-7.324
1621556159.368,4.395,28.320,32.227,22.949,-37.109
1621556159.372,5.371,28.809,30.762,13.184,6.348
1621556159.376,9.277,25.879,32.715,8.789,5.371
1621556159.380,14.648,24.414,31.738,13.184,7.812
1621556159.384,21.484,31.250,27.344,12.695,10.742
1621556159.388,20.508,34.180,27.344,12.207,27.832
1621556159.392,20.020,32.715,24.902,5.859,61.523
1621556159.395,30.762,33.691,21.973,6.348,68.359
1621556159.399,34.180,34.668,24.414,12.207,21.484
1621556159.403,39.062,36.133,24.414,14.160,-13.184
1621556159.407,42.480,37.109,20.508,12.207,16.602
1621556159.411,37.598,38.086,21.484,13.184,-17.578
1621556159.423,31.250,36.621,26.855,26.855,-20.020
1621556159.427,26.367,34.668,27.344,30.273,48.828
1621556159.431,23.926,33.203,25.879,22.949,64.941
1621556159.435,18.555,34.180,25.879,16.113,54.688
1621556159.439,19.531,35.645,25.879,13.672,1.953
1621556159.443,27.344,34.668,25.879,16.113,-12.695
1621556159.447,25.879,34.180,20.020,14.648,27.832
1621556159.450,16.113,34.180,19.531,14.160,23.926
1621556159.454,6.348,33.691,22.949,19.531,1.953
1621556159.458,9.277,33.691,20.508,21.484,11.719
1621556159.462,11.230,35.156,21.484,22.949,15.625
1621556159.466,8.301,34.180,25.879,27.344,-17.578
1621556159.460,8.301,31.250,26.855,21.484,-54.688
1621556159.464,5.859,30.273,26.367,21.973,-55.664
1621556159.468,10.254,26.855,27.832,32.227,-18.555
1621556159.472,17.578,22.461,28.809,29.297,-13.184
1621556159.476,22.949,27.344,30.762,26.855,-5.371
1621556159.480,29.297,30.762,30.273,26.855,19.043
1621556159.484,33.691,32.715,31.738,26.367,34.180
1621556159.487,32.715,38.574,32.227,27.344,4.395
1621556159.491,32.715,37.598,25.879,24.902,-30.762
1621556159.495,32.715,35.156,20.996,20.508,8.789
1621556159.499,44.434,36.133,19.043,15.137,-10.254
1621556159.503,48.340,38.086,21.484,5.859,-0.488
1621556159.518,34.180,38.086,23.926,0.977,37.598
1621556159.522,31.250,35.645,24.902,11.230,34.668
1621556159.526,29.297,31.250,23.926,21.484,20.508
1621556159.530,21.973,29.297,24.414,21.973,18.066
1621556159.534,19.531,34.180,24.902,13.672,51.758
1621556159.538,16.113,34.180,20.508,12.695,59.082
1621556159.542,14.648,35.156,19.043,25.391,10.254
1621556159.545,18.555,35.645,23.438,32.715,-23.926
1621556159.549,18.555,30.273,25.879,28.809,8.301
1621556159.553,23.438,30.273,25.391,25.391,28.809
1621556159.557,24.414,31.250,24.902,31.738,52.246
1621556159.561,9.766,28.809,24.414,31.738,19.043
1621556159.538,4.883,24.902,23.926,29.297,-36.621
1621556159.542,7.812,24.902,27.832,32.227,6.836
1621556159.546,5.859,27.832,28.809,36.621,14.648
1621556159.550,8.789,30.762,29.785,38.574,26.367
1621556159.554,6.836,34.180,32.715,25.879,34.180
1621556159.558,-0.977,32.227,29.297,15.137,-11.719
1621556159.562,5.859,28.809,27.344,22.461,32.715
1621556159.565,13.184,29.785,27.832,22.949,23.926
1621556159.569,17.090,30.273,28.809,14.160,2.441
1621556159.573,24.414,28.320,30.273,11.230,83.008
1621556159.577,29.785,24.902,28.809,9.277,35.156
1621556159.581,42.480,25.391,32.227,10.742,-31.250
1621556159.593,35.156,28.320,35.156,20.508,25.391
1621556159.597,10.254,28.809,29.297,20.996,26.855
1621556159.601,18.066,28.809,26.855,15.137,-31.250
1621556159.605,32.227,31.738,30.273,20.996,-17.578
1621556159.609,27.832,36.621,29.297,22.949,100.098
1621556159.613,29.785,38.574,29.297,18.066,91.309
1621556159.617,28.809,39.551,31.250,21.484,23.926
1621556159.620,22.949,41.504,30.762,27.344,-8.301
1621556159.624,23.926,41.992,28.320,33.203,-30.273
1621556159.628,20.996,43.945,25.391,35.645,-7.324
1621556159.632,26.367,46.387,24.902,29.297,-7.324
1621556159.636,27.344,44.434,23.926,23.926,14.648
1621556159.667,26.855,40.039,24.902,25.879,4.395
1621556159.671,30.762,39.062,26.367,18.066,-16.113
1621556159.675,26.855,41.992,26.855,16.602,61.035
1621556159.679,21.973,37.598,26.367,22.461,56.152
1621556159.683,20.020,36.133,29.297,27.344,46.387
1621556159.687,19.531,37.109,33.691,32.715,24.414
1621556159.691,24.414,37.109,35.645,26.855,37.598
1621556159.694,29.785,37.598,36.621,16.602,24.414
1621556159.698,10.742,33.203,36.621,14.648,-54.688
1621556159.702,1.465,28.320,36.621,21.973,-59.082
1621556159.706,9.277,28.320,39.062,25.391,43.945
1621556159.710,13.672,33.203,37.598,20.996,107.422
1621556159.725,27.344,34.668,33.691,23.926,38.086
1621556159.729,36.133,34.180,35.156,31.250,32.715
1621556159.733,29.785,32.227,32.227,27.832,6.348
1621556159.737,20.020,30.762,30.762,24.902,-26.855
1621556159.741,10.254,28.809,34.668,26.367,26.855
1621556159.745,5.859,26.855,34.668,24.414,59.570
1621556159.749,14.160,29.297,34.180,21.973,11.719
1621556159.752,16.602,30.273,32.227,11.719,17.090
1621556159.756,13.672,28.809,33.203,9.766,31.738
1621556159.760,23.438,31.250,31.738,16.602,50.293
1621556159.764,34.668,38.086,27.832,10.742,0.488
1621556159.768,38.574,41.016,27.832,6.836,-75.195
1621556159.780,34.668,39.062,32.715,5.859,-16.602
1621556159.784,32.715,39.551,33.203,8.789,11.230
1621556159.788,30.762,40.527,32.227,17.578,74.219
1621556159.792,23.438,38.574,32.715,16.113,53.711
1621556159.796,20.996,38.574,30.273,10.742,-19.531
1621556159.800,20.996,34.180,30.273,11.719,34.180
1621556159.804,23.926,33.203,34.668,16.113,78.125
1621556159.807,29.297,39.551,41.016,25.391,19.043
1621556159.811,29.785,37.109,43.457,31.250,-5.859
1621556159.815,26.855,33.203,42.969,33.691,38.086
1621556159.819,23.926,35.645,41.504,37.109,76.660
1621556159.823,22.949,34.180,43.457,36.621,37.109
1621556159.817,17.578,30.762,44.434,34.180,18.066
1621556159.821,15.625,29.785,39.551,29.785,62.012
1621556159.825,21.484,31.738,41.992,27.832,75.195
1621556159.829,9.766,33.203,44.922,27.344,31.250
1621556159.833,7.812,29.785,40.039,23.438,-7.324
1621556159.837,25.391,27.344,40.527,23.926,20.508
1621556159.841,18.066,30.762,41.992,22.461,9.277
1621556159.844,9.766,32.227,41.016,21.484,64.453
1621556159.848,12.695,33.691,41.504,22.461,58.105
1621556159.852,9.766,35.156,40.039,13.184,-8.789
1621556159.856,7.812,31.738,39.062,13.184,-8.789
1621556159.860,10.742,31.250,40.039,17.578,40.527
1621556159.854,13.672,33.691,40.039,17.090,54.199
1621556159.858,14.160,31.738,40.527,21.973,23.926
1621556159.862,19.531,33.203,41.504,24.414,11.719
1621556159.866,22.461,37.109,38.574,27.832,4.883
1621556159.870,20.996,32.227,38.086,35.156,23.926
1621556159.874,24.902,28.320,40.039,28.320,35.156
1621556159.878,25.879,38.086,40.039,21.973,45.410
1621556159.881,20.996,41.992,38.086,24.902,17.578
1621556159.885,25.391,41.504,37.598,21.973,-20.996
1621556159.889,33.691,40.039,37.109,20.508,-28.320
1621556159.893,27.832,38.574,39.062,15.137,-16.113
1621556159.897,30.273,39.551,38.574,20.508,11.230
1621556159.894,41.504,37.109,40.039,32.715,17.090
1621556159.898,39.062,33.203,45.410,34.180,-22.949
1621556159.902,29.297,33.203,46.387,32.227,-12.207
1621556159.906,29.785,35.645,47.852,28.809,23.926
1621556159.910,26.367,29.785,46.387,28.320,38.086
1621556159.914,21.484,29.785,46.387,30.273,76.660
1621556159.918,21.973,35.645,46.387,30.273,33.691
1621556159.921,24.414,33.203,46.875,24.414,-13.672
1621556159.925,21.973,31.738,49.316,21.484,13.672
1621556159.929,8.301,33.691,45.410,26.855,28.809
1621556159.933,-0.488,31.250,41.992,23.438,35.156
1621556159.937,6.836,28.809,43.945,16.113,51.270
1621556159.949,14.160,30.762,43.457,18.066,73.242
1621556159.953,22.461,33.691,43.457,17.578,83.496
1621556159.957,22.461,36.133,42.969,12.207,59.570
1621556159.961,14.160,37.598,41.016,11.719,6.836
1621556159.965,16.602,35.156,41.992,16.113,-6.836
1621556159.969,14.648,30.762,41.504,18.066,-1.465
1621556159.973,17.090,35.645,40.527,16.113,-12.695
1621556159.976,23.438,37.598,36.133,10.254,4.395
1621556159.980,22.949,33.203,33.691,11.719,20.020
1621556159.984,29.297,34.180,35.156,19.531,21.484
1621556159.988,31.250,35.156,39.062,21.484,21.484
1621556159.992,22.461,37.109,40.527,12.695,33.203
1621556160.042,23.926,39.062,39.551,4.883,43.945
1621556160.046,34.180,40.527,41.504,15.625,70.312
1621556160.050,36.133,43.457,42.969,25.879,59.570
1621556160.054,28.320,41.504,42.969,27.344,7.324
1621556160.058,23.438,33.691,41.504,24.414,25.391
1621556160.062,19.043,31.250,41.992,22.949,19.043
1621556160.066,23.438,35.156,42.969,29.785,4.395
1621556160.069,21.973,35.645,42.969,28.320,29.297
1621556160.073,24.414,37.109,43.457,20.508,-18.066
1621556160.077,29.785,41.016,41.992,20.508,-34.668
1621556160.081,23.926,40.527,37.598,19.531,-17.090
1621556160.085,24.414,38.574,38.574,22.461,49.805
1621556160.062,16.602,40.039,39.062,18.066,60.059
1621556160.066,8.789,38.574,38.574,14.648,63.965
1621556160.070,17.090,34.180,38.086,20.020,59.082
1621556160.074,24.902,31.250,39.551,22.461,-5.859
1621556160.078,25.879,30.762,41.504,21.484,6.836
1621556160.082,20.508,31.738,39.062,15.625,10.742
1621556160.086,13.184,36.133,39.062,14.160,41.016
1621556160.089,10.254,33.203,40.527,22.461,27.344
1621556160.093,12.207,32.227,41.504,20.508,24.414
1621556160.097,16.602,33.691,39.062,10.742,36.133
1621556160.101,27.344,32.715,36.621,13.672,10.742
1621556160.105,33.203,31.738,34.180,21.484,14.160
1621556160.118,22.949,25.879,34.180,26.367,-18.555
1621556160.122,17.090,23.926,36.621,19.531,-5.371
1621556160.126,19.043,28.809,36.133,14.160,18.066
1621556160.130,23.926,34.180,36.133,19.043,-2.441
1621556160.134,27.344,38.086,36.621,15.625,34.180
1621556160.138,32.227,41.016,31.738,5.371,75.684
1621556160.142,27.344,38.574,29.297,11.719,20.020
1621556160.145,10.742,30.273,35.156,11.719,14.160
1621556160.149,13.672,30.762,35.645,6.348,2.441
1621556160.153,14.160,37.598,32.227,5.859,-31.250
1621556160.157,6.836,39.062,33.691,1.465,-34.180
1621556160.161,17.090,37.598,38.086,9.766,-23.926
1621556160.155,24.902,37.598,38.574,19.531,30.273
1621556160.159,23.926,38.086,39.551,15.625,81.543
1621556160.163,27.344,37.109,38.086,5.859,84.473
1621556160.167,24.902,36.133,36.133,9.277,32.715
1621556160.171,26.855,37.109,40.527,29.297,35.645
1621556160.175,39.062,39.551,45.410,33.691,18.555
1621556160.179,29.785,40.527,44.434,27.344,7.324
1621556160.182,16.113,33.203,44.922,31.738,64.941
1621556160.186,26.367,28.320,43.945,39.062,39.551
1621556160.190,32.715,33.203,42.480,36.621,-12.695
1621556160.194,32.227,39.062,39.551,25.879,23.438
1621556160.198,30.762,40.527,34.668,20.996,21.973
1621556160.192,24.902,38.574,33.691,23.926,-26.367
1621556160.196,20.996,34.668,33.691,21.484,23.438
1621556160.200,29.297,31.738,35.645,12.695,2.441
1621556160.204,31.738,35.156,39.551,12.207,-6.348
1621556160.208,13.672,36.133,40.527,15.625,-21.973
1621556160.212,2.441,35.156,38.574,16.602,-21.484
1621556160.216,-6.348,33.203,33.691,10.742,39.551
1621556160.219,-4.395,32.715,32.715,7.812,33.203
1621556160.223,4.883,34.180,30.762,7.812,24.414
1621556160.227,10.254,30.762,28.320,2.930,66.895
1621556160.231,14.648,32.715,33.691,0.000,29.785
1621556160.235,14.648,33.691,38.574,-0.977,-2.930
1621556160.229,10.254,30.762,38.574,-1.953,10.742
1621556160.233,13.184,33.203,39.551,0.488,35.645
1621556160.237,25.391,37.598,41.016,5.371,28.320
1621556160.241,33.203,41.016,41.016,2.441,-28.809
