timestamps,TP9,AF7,AF8,TP10,Right AUX
1621558099.128,24.902,37.109,22.461,21.484,41.992
1621558099.132,24.902,34.180,25.391,26.367,31.738
1621558099.136,26.367,32.227,26.367,21.973,2.930
1621558099.140,28.809,34.180,24.902,20.508,30.762
1621558099.144,35.156,33.691,26.367,28.809,19.043
1621558099.148,34.668,31.738,24.414,30.273,84.961
1621558099.152,32.715,31.738,24.902,30.762,18.555
1621558099.155,29.785,32.715,28.809,33.203,-64.941
1621558099.159,20.996,33.691,27.832,33.691,21.484
1621558099.163,11.719,29.297,28.809,36.133,16.602
1621558099.167,12.695,28.320,27.832,37.598,14.160
1621558099.171,18.066,31.250,28.809,34.668,-22.461
1621558099.172,31.250,30.273,30.273,34.180,20.508
1621558099.176,31.738,32.227,33.691,35.156,41.016
1621558099.180,35.156,33.203,36.133,37.109,38.574
1621558099.184,39.062,32.715,32.227,34.668,-46.875
1621558099.188,42.969,32.227,33.691,41.016,-32.715
1621558099.191,46.875,33.203,30.273,40.527,33.691
1621558099.195,50.781,31.738,24.414,37.109,59.082
1621558099.199,62.012,32.715,27.344,42.480,43.945
1621558099.203,55.664,31.250,29.785,36.621,-18.555
1621558099.207,44.922,24.902,33.691,34.180,-14.648
1621558099.257,46.875,24.414,37.109,31.738,-8.301
1621558099.261,43.457,30.762,29.297,20.996,7.324
1621558099.265,41.992,35.156,26.855,22.461,25.879
1621558099.269,41.992,35.645,29.785,25.391,5.371
1621558099.273,33.691,30.762,31.250,26.367,53.711
1621558099.277,27.344,26.855,32.715,30.762,62.500
1621558099.281,21.973,27.344,35.156,34.668,37.598
1621558099.284,17.578,27.832,38.574,35.645,23.438
1621558099.288,15.625,26.367,36.133,39.551,-7.812
1621558099.292,17.090,24.902,35.156,46.875,29.297
1621558099.296,13.184,27.344,31.738,49.805,52.246
1621558099.300,20.020,31.250,30.762,53.711,98.633
1621558099.276,27.344,30.273,34.668,62.988,141.113
1621558099.280,27.832,29.297,35.156,65.918,117.188
1621558099.284,28.809,30.273,33.203,65.430,137.695
1621558099.288,28.809,31.738,33.203,73.730,110.840
1621558099.292,33.203,34.180,33.203,77.148,13.184
1621558099.296,38.574,34.180,29.785,76.172,-1.465
1621558099.300,42.969,34.668,24.414,79.102,42.969
1621558099.303,47.363,37.109,25.879,87.891,37.109
1621558099.307,46.875,35.645,27.832,99.121,-1.465
1621558099.311,43.945,30.273,27.832,103.516,23.926
1621558099.315,40.527,30.762,30.762,100.098,41.992
1621558099.319,40.039,29.297,28.320,101.562,17.578
1621558099.314,42.480,28.320,26.855,103.027,2.441
1621558099.318,41.992,27.344,30.273,98.633,63.965
1621558099.322,38.086,29.785,30.762,92.773,55.176
1621558099.326,35.156,34.668,30.762,90.332,16.602
1621558099.330,35.645,32.715,28.809,90.332,2.930
1621558099.334,34.668,30.762,27.832,87.891,-2.930
1621558099.338,34.668,31.250,29.785,87.891,24.902
1621558099.341,31.250,32.227,30.273,81.543,-10.742
1621558099.345,25.391,28.809,32.715,75.684,12.695
1621558099.349,21.484,25.391,35.156,72.754,47.852
1621558099.353,15.137,26.367,32.715,58.105,44.922
1621558099.357,8.301,23.438,32.715,46.875,57.617
1621558099.351,13.184,22.461,36.621,50.293,12.695
1621558099.355,18.555,23.438,32.715,49.805,3.906
1621558099.359,17.578,21.973,30.273,42.969,9.277
1621558099.363,23.926,24.414,36.133,41.504,-5.371
1621558099.367,31.250,28.320,34.668,34.180,14.160
1621558099.371,32.715,29.785,30.273,22.949,5.371
1621558099.375,33.203,31.738,29.785,18.066,21.484
1621558099.378,35.156,34.180,28.320,11.230,11.719
1621558099.382,36.621,29.297,25.391,3.906,-25.879
1621558099.386,34.180,26.367,24.414,6.836,23.438
1621558099.390,33.691,30.273,22.949,6.836,84.961
1621558099.394,35.156,28.809,21.973,0.488,1.465
1621558099.407,35.156,27.832,20.508,-7.324,-20.020
1621558099.411,37.598,32.227,18.555,-7.812,18.555
1621558099.415,41.016,32.227,20.996,0.000,1.465
1621558099.419,36.621,33.691,22.949,-3.418,6.836
1621558099.423,29.785,30.762,22.949,-10.254,52.246
1621558099.427,28.320,27.832,24.414,-9.766,47.852
1621558099.431,28.809,28.320,22.461,-8.789,10.742
1621558099.434,30.762,28.809,19.531,-11.719,69.824
1621558099.438,30.762,29.785,21.484,-15.625,82.031
1621558099.442,30.762,32.227,23.926,-11.230,37.109
1621558099.446,30.762,28.809,24.902,-2.930,3.418
1621558099.450,33.203,27.344,27.832,3.418,-8.789
1621558099.445,31.738,27.344,28.320,-0.977,-60.547
1621558099.449,22.461,21.973,29.297,-4.395,-53.711
1621558099.453,20.508,23.926,33.691,2.441,-1.953
1621558099.457,17.578,27.832,35.156,7.812,-25.391
1621558099.461,12.207,26.855,35.645,15.137,22.949
1621558099.465,16.113,25.391,38.086,21.973,10.742
1621558099.469,21.484,26.367,38.086,25.391,-16.113
1621558099.472,24.902,29.785,32.715,23.926,-0.488
1621558099.476,30.273,29.297,31.738,19.043,0.488
1621558099.480,31.250,29.785,31.738,16.113,31.738
1621558099.484,31.250,35.156,28.809,12.207,-7.324
1621558099.488,43.457,36.621,29.785,14.648,-23.926
1621558099.501,50.293,34.668,29.297,7.324,7.324
1621558099.505,43.457,33.203,26.367,0.000,50.293
1621558099.509,43.457,35.156,25.879,0.488,66.406
1621558099.513,48.828,38.086,30.762,1.953,16.602
1621558099.517,49.316,37.598,35.156,4.883,-38.086
1621558099.521,41.992,36.133,33.203,-0.977,0.000
1621558099.525,35.156,34.668,31.738,0.488,99.121
1621558099.528,34.180,34.180,31.250,7.324,67.383
1621558099.532,35.156,33.203,31.738,12.207,30.762
1621558099.536,37.109,35.645,33.203,13.672,33.691
1621558099.540,36.133,35.645,30.762,10.254,17.090
1621558099.544,32.715,32.227,31.250,6.836,-6.836
1621558099.538,33.203,30.762,31.250,11.230,-14.648
1621558099.542,30.762,31.738,30.273,18.066,6.348
1621558099.546,27.344,34.180,33.203,13.672,15.137
1621558099.550,25.879,33.691,30.273,8.789,30.762
1621558099.554,29.297,32.715,30.762,14.160,59.082
1621558099.558,28.320,31.738,34.180,15.625,97.656
1621558099.562,22.949,29.297,34.180,12.695,74.219
1621558099.565,20.508,30.273,33.203,13.672,92.773
1621558099.569,17.578,30.273,31.738,19.531,104.004
1621558099.573,14.648,28.320,32.715,18.555,37.109
1621558099.577,9.766,27.832,32.227,13.672,42.480
1621558099.581,10.254,27.832,31.250,17.578,27.344
1621558099.595,16.602,23.926,31.250,22.949,18.555
1621558099.599,18.066,23.926,33.203,23.926,11.719
1621558099.603,23.926,25.391,34.668,22.461,18.555
1621558099.607,30.273,21.484,31.250,19.531,33.203
1621558099.611,35.156,22.949,29.785,20.996,21.484
1621558099.615,42.969,28.809,31.250,24.902,4.883
1621558099.619,43.945,34.668,29.297,20.508,2.441
1621558099.622,38.086,38.574,26.367,18.555,34.180
1621558099.626,35.645,34.180,27.344,14.160,27.344
1621558099.630,37.109,29.297,27.344,8.301,14.648
1621558099.634,35.645,29.297,29.785,11.719,77.148
1621558099.638,32.715,31.250,34.180,9.766,80.078
1621558099.632,28.809,30.273,34.180,11.719,-4.883
1621558099.636,26.367,30.273,32.715,15.625,5.371
1621558099.640,29.785,29.297,34.668,19.531,20.508
1621558099.644,35.645,31.738,34.668,28.809,0.488
1621558099.648,37.598,34.180,34.668,28.320,4.395
1621558099.652,39.062,32.715,37.109,26.855,5.859
1621558099.656,37.598,31.738,37.109,27.832,41.504
1621558099.659,29.297,33.691,34.668,23.926,26.855
1621558099.663,28.809,34.668,34.668,21.484,-3.418
1621558099.667,30.762,32.227,31.738,21.973,12.207
1621558099.671,33.691,31.738,34.180,27.344,-23.926
1621558099.675,37.109,35.645,36.621,31.738,-28.320
1621558099.689,35.156,35.156,35.645,30.762,18.555
1621558099.693,34.180,30.762,35.156,32.227,11.230
1621558099.697,32.715,32.227,34.668,33.203,5.859
1621558099.701,33.691,35.156,33.203,30.762,22.949
1621558099.705,35.156,34.668,33.203,27.344,43.945
1621558099.709,36.133,33.203,35.156,26.367,62.500
1621558099.713,31.738,31.738,34.180,24.414,15.137
1621558099.716,23.438,30.762,34.668,21.484,7.812
1621558099.720,18.066,27.344,33.691,14.160,56.641
1621558099.724,17.090,25.391,34.180,12.695,76.172
1621558099.728,20.020,22.949,33.691,11.230,85.938
1621558099.732,20.996,25.879,34.180,8.301,67.383
1621558099.726,19.043,29.785,34.668,10.742,41.016
1621558099.730,21.973,31.250,31.738,15.625,47.852
1621558099.734,26.855,32.715,28.809,17.578,96.191
1621558099.738,29.297,34.668,26.855,19.531,83.008
1621558099.742,32.715,32.227,26.367,26.855,24.414
1621558099.746,33.691,31.738,28.809,28.320,48.340
1621558099.750,35.156,34.668,29.785,28.809,64.941
1621558099.753,41.016,31.738,30.273,29.297,34.668
1621558099.757,39.551,30.762,31.738,33.203,-11.230
1621558099.761,34.180,29.297,32.227,32.227,-12.695
1621558099.765,38.574,27.832,34.180,32.227,28.320
1621558099.769,40.527,28.320,33.691,40.039,62.500
1621558099.782,35.645,30.762,35.645,42.480,36.621
1621558099.786,31.250,32.715,38.574,38.086,21.484
1621558099.790,29.297,31.250,37.109,34.668,19.043
1621558099.794,32.715,27.344,36.621,33.691,20.996
1621558099.798,36.621,27.344,41.504,37.598,54.688
1621558099.802,35.156,29.297,43.945,34.180,92.285
1621558099.806,35.156,27.344,42.969,29.785,33.691
1621558099.809,35.156,25.879,44.434,32.227,-44.922
1621558099.813,31.738,24.414,41.992,28.320,-34.180
1621558099.817,29.785,26.367,39.062,22.461,-14.648
1621558099.821,30.273,26.367,39.551,20.996,51.758
1621558099.825,22.949,27.832,34.668,12.695,27.832
1621558099.820,25.391,31.250,31.250,17.090,34.668
1621558099.824,32.715,31.250,32.227,26.367,46.387
1621558099.828,25.879,29.297,31.250,20.020,-4.883
1621558099.832,25.879,26.855,32.227,20.508,-19.531
1621558099.836,24.902,26.855,31.250,22.461,9.277
1621558099.840,24.414,27.344,29.297,22.461,13.672
1621558099.844,25.879,27.344,28.809,17.578,-45.898
1621558099.847,18.555,29.785,26.367,12.695,0.000
1621558099.851,20.020,32.715,23.438,16.602,24.902
1621558099.855,23.438,33.203,22.949,18.066,36.621
1621558099.859,21.484,31.250,25.391,17.578,45.410
1621558099.863,25.391,30.273,28.320,22.949,2.441
1621558099.876,27.344,32.227,26.855,24.414,60.547
1621558099.880,31.738,30.273,26.367,32.227,31.250
1621558099.884,40.527,26.855,27.832,38.574,-2.441
1621558099.888,44.922,27.832,31.250,39.062,32.227
1621558099.892,46.387,29.297,33.691,41.992,34.180
1621558099.896,47.363,33.203,30.273,42.480,34.668
1621558099.900,46.387,32.715,27.832,38.574,27.344
1621558099.903,40.527,29.785,29.785,32.715,-13.672
1621558099.907,37.109,32.227,26.855,28.809,15.137
1621558099.911,36.133,29.297,23.926,30.273,24.414
1621558099.915,34.668,31.250,25.391,27.832,12.695
1621558099.919,36.133,37.109,24.902,23.926,45.410
1621558099.914,38.086,32.715,24.414,24.902,41.504
1621558099.918,31.250,30.762,26.855,26.855,26.367
1621558099.922,26.367,33.691,27.832,30.273,53.223
1621558099.926,25.391,31.250,24.902,25.391,38.086
1621558099.930,21.484,30.762,23.926,15.137,-5.859
1621558099.934,20.020,28.809,28.809,15.625,-8.789
1621558099.938,24.414,25.879,33.203,25.879,-70.312
1621558099.941,28.809,28.320,34.668,26.367,-2.930
1621558099.945,30.273,31.738,33.691,20.996,82.520
1621558099.949,31.738,28.809,32.715,22.461,5.859
1621558099.953,35.645,27.344,32.715,20.996,-17.578
1621558099.957,34.180,29.785,31.250,19.043,-45.410
1621558099.970,31.250,31.250,30.273,20.996,-11.719
1621558099.974,37.109,31.250,30.762,23.438,35.156
1621558099.978,37.109,31.738,30.273,22.461,16.602
1621558099.982,38.574,32.715,30.762,26.855,20.508
1621558099.986,38.574,34.180,33.691,26.367,49.805
1621558099.990,39.551,34.668,34.180,24.902,27.832
1621558099.994,39.551,37.109,34.668,33.691,23.438
1621558099.997,39.062,40.527,32.715,36.621,63.965
1621558100.001,39.062,38.086,31.738,33.203,72.754
1621558100.005,35.156,34.180,33.691,28.809,104.980
1621558100.009,32.715,30.762,32.227,29.297,92.773
1621558100.013,32.715,31.250,32.227,37.109,58.594
1621558100.009,35.156,31.738,35.645,40.527,46.387
1621558100.013,34.180,31.738,36.621,34.668,26.367
1621558100.017,30.762,31.738,34.668,31.250,63.477
1621558100.021,32.227,32.227,33.691,29.785,74.219
1621558100.025,27.832,32.227,31.738,20.996,47.363
1621558100.029,22.461,31.738,29.785,7.812,40.039
1621558100.033,23.438,32.227,31.250,7.324,30.762
1621558100.036,27.344,32.227,30.273,14.648,55.664
1621558100.040,33.691,34.180,27.832,19.043,23.926
1621558100.044,31.738,34.668,27.344,17.578,28.809
1621558100.048,30.273,35.645,25.391,18.555,32.227
1621558100.052,32.227,33.691,26.855,21.973,5.371
1621558100.063,32.227,29.297,28.809,22.949,-13.184
1621558100.067,32.227,25.879,29.785,24.414,-26.855
1621558100.071,33.691,25.879,32.715,27.344,53.223
1621558100.075,34.668,31.250,32.715,29.297,77.148
1621558100.079,39.551,28.809,32.715,34.668,2.441
1621558100.083,38.574,26.855,34.668,33.203,-0.977
1621558100.087,32.227,28.320,34.668,25.391,16.113
1621558100.090,32.715,31.250,33.691,25.879,20.996
1621558100.094,31.738,29.297,32.715,25.879,18.555
1621558100.098,28.320,22.949,33.691,25.879,24.414
1621558100.102,30.762,24.902,31.738,26.367,34.668
1621558100.106,32.715,26.855,28.320,24.902,45.410
1621558100.101,29.785,26.855,31.250,29.297,36.133
1621558100.105,30.273,26.855,34.180,29.297,-49.316
1621558100.109,33.203,29.785,32.227,19.531,-34.668
1621558100.113,31.738,31.738,28.320,14.160,42.480
1621558100.117,31.250,31.738,27.832,17.090,25.879
1621558100.121,38.574,28.809,28.809,22.461,36.133
1621558100.125,43.945,33.203,30.273,24.902,51.758
1621558100.128,43.457,35.645,31.250,26.367,30.762
1621558100.132,40.527,29.785,31.250,26.367,45.410
1621558100.136,40.527,28.320,34.180,24.902,79.102
1621558100.140,35.645,29.785,35.156,24.414,72.754
1621558100.144,29.785,30.762,37.109,27.832,62.012
1621558100.157,25.879,28.320,35.645,26.855,45.410
1621558100.161,23.438,23.926,33.203,27.344,7.324
1621558100.165,28.320,24.902,33.203,30.762,-16.602
1621558100.169,28.809,26.855,33.203,30.762,0.977
1621558100.173,24.414,24.414,35.156,30.762,-1.953
1621558100.177,21.484,25.391,33.203,32.227,5.371
1621558100.181,20.996,26.367,29.297,31.250,87.891
1621558100.184,18.555,26.855,29.297,25.391,44.434
1621558100.188,17.578,27.344,29.785,24.414,-12.695
1621558100.192,16.602,23.926,29.297,26.367,43.945
1621558100.196,15.625,25.879,30.273,28.809,60.547
1621558100.200,14.648,29.297,28.809,24.902,19.531
1621558100.197,15.625,24.414,25.879,21.973,-36.133
1621558100.201,22.949,24.902,29.785,27.832,-20.508
1621558100.205,28.809,26.855,29.785,30.273,66.406
1621558100.209,32.227,25.879,23.926,29.297,54.199
1621558100.213,34.180,25.879,23.926,22.949,-29.785
1621558100.217,34.180,29.297,24.414,19.043,-5.371
1621558100.221,36.621,30.273,22.949,17.090,-5.371
1621558100.224,34.180,30.762,22.949,20.508,24.414
1621558100.228,25.879,29.785,25.879,22.461,18.066
1621558100.232,26.367,27.832,28.809,21.484,8.789
1621558100.236,27.832,29.297,28.809,26.855,55.176
1621558100.240,31.250,31.250,27.832,31.250,10.254
1621558100.271,31.738,33.203,27.344,29.297,-28.809
1621558100.275,28.809,32.227,28.320,27.832,-8.789
1621558100.279,26.367,33.203,31.738,27.832,29.785
1621558100.283,24.414,31.738,32.715,29.297,16.113
1621558100.287,25.879,33.203,32.227,30.273,-33.691
1621558100.291,22.461,33.203,33.203,21.973,-3.418
1621558100.295,20.020,25.879,35.156,19.531,25.391
1621558100.298,19.531,27.832,31.738,22.949,28.809
1621558100.302,22.949,31.738,31.738,26.855,-3.418
1621558100.306,28.320,32.715,36.133,29.297,-21.973
1621558100.310,35.156,31.250,34.668,31.738,26.367
1621558100.314,38.574,32.227,32.715,33.691,59.570
1621558100.308,36.621,32.227,33.691,29.297,60.547
1621558100.312,38.086,33.203,35.156,29.297,53.711
1621558100.316,32.227,32.715,31.250,24.902,-1.465
1621558100.320,28.320,31.738,28.809,23.438,-25.391
1621558100.324,35.645,33.203,31.250,26.367,5.859
1621558100.328,38.574,31.738,34.180,26.367,11.230
1621558100.332,37.109,30.273,31.738,24.414,-35.645
1621558100.335,37.109,28.809,31.250,26.367,18.555
1621558100.339,37.109,30.762,31.250,28.809,43.945
1621558100.343,35.645,32.227,29.297,27.344,-16.602
1621558100.347,29.785,30.762,29.297,26.855,-16.602
1621558100.351,27.832,30.273,29.297,28.320,-0.977
1621558100.345,29.785,29.297,30.273,25.879,63.965
1621558100.349,37.109,29.785,33.203,28.320,37.109
1621558100.353,38.574,31.250,31.250,31.250,32.227
1621558100.357,32.715,29.785,30.273,26.855,69.824
1621558100.361,35.156,29.785,33.203,31.738,39.062
1621558100.365,42.969,31.738,31.250,34.180,6.836
1621558100.369,41.504,34.668,27.832,27.832,6.348
1621558100.372,38.086,36.133,27.832,28.809,40.527
1621558100.376,38.574,34.180,29.297,30.762,27.344
1621558100.380,33.203,35.645,27.344,26.855,-5.859
1621558100.384,32.715,35.156,26.855,28.320,40.039
1621558100.388,31.250,36.133,26.855,28.320,53.223
1621558100.382,25.391,36.133,26.367,28.809,66.895
1621558100.386,21.973,30.762,25.391,32.715,24.902
1621558100.390,18.066,27.832,24.902,29.297,13.184
1621558100.394,15.625,29.297,25.879,29.785,62.012
1621558100.398,17.578,30.762,26.367,30.762,-2.930
1621558100.402,15.625,32.227,26.855,22.949,-25.879
1621558100.406,18.066,30.762,28.809,24.414,18.555
1621558100.409,24.414,26.367,32.227,28.809,75.195
1621558100.413,24.902,27.344,33.203,20.996,130.859
1621558100.417,30.762,30.762,28.809,20.508,54.688
1621558100.421,36.621,30.273,28.320,22.949,23.926
1621558100.425,40.527,28.320,31.738,23.926,59.082
1621558100.438,36.621,27.832,28.320,21.973,67.871
1621558100.442,33.203,28.809,26.367,19.043,64.941
1621558100.446,38.086,25.391,28.809,23.438,61.523
1621558100.450,36.133,24.902,28.320,22.949,41.504
1621558100.454,34.668,26.855,28.320,22.949,0.000
1621558100.458,40.527,26.367,33.203,32.715,8.301
1621558100.462,39.551,28.809,30.762,37.109,58.594
1621558100.465,39.062,27.832,27.832,38.086,70.312
1621558100.469,41.504,27.832,28.320,37.598,65.430
1621558100.473,39.551,29.297,27.832,35.645,32.715
1621558100.477,39.551,30.273,27.832,34.180,-28.809
1621558100.481,40.039,30.273,29.785,32.715,-5.371
1621558100.476,33.691,31.250,30.762,25.879,40.527
1621558100.480,24.414,31.738,25.391,14.648,42.969
1621558100.484,22.461,29.297,22.949,15.625,12.695
1621558100.488,24.414,28.809,24.414,20.508,57.617
1621558100.492,21.484,29.297,22.949,20.020,33.691
1621558100.496,20.508,29.785,24.414,20.996,12.207
1621558100.500,22.461,29.785,29.785,23.926,55.664
1621558100.503,21.484,23.926,31.250,25.391,26.367
1621558100.507,20.020,26.855,29.785,24.902,60.059
1621558100.511,24.902,31.250,30.273,25.879,101.562
1621558100.515,28.320,28.320,29.785,21.973,35.156
1621558100.519,32.715,30.762,29.297,26.855,47.363
1621558100.532,39.551,33.691,33.203,37.109,64.941
1621558100.536,41.016,34.180,31.738,39.062,23.438
1621558100.540,44.434,36.133,29.297,35.645,11.719
1621558100.544,44.922,37.598,29.297,36.621,-9.766
1621558100.548,41.504,36.133,30.273,41.016,36.621
1621558100.552,37.598,30.762,32.715,35.156,53.711
1621558100.556,34.668,30.762,33.691,33.691,7.812
1621558100.559,32.227,32.715,31.250,31.738,79.102
1621558100.563,34.668,27.344,30.762,26.855,55.176
1621558100.567,39.062,26.855,34.668,28.809,-22.949
1621558100.571,37.109,28.809,34.180,25.879,2.441
1621558100.575,34.668,31.738,36.621,26.855,10.742
1621558100.570,35.156,35.156,36.621,30.762,16.113
1621558100.574,33.691,35.156,33.203,29.297,21.973
1621558100.578,29.785,33.203,32.227,29.297,-9.766
1621558100.582,27.344,31.738,30.273,31.738,-15.137
1621558100.586,26.367,33.203,29.785,32.227,-3.906
1621558100.590,26.855,34.180,28.320,26.855,52.734
1621558100.594,21.973,33.691,27.832,24.414,88.379
1621558100.597,17.090,31.738,27.832,22.461,0.977
1621558100.601,17.578,29.297,26.367,20.508,-19.043
1621558100.605,22.949,29.785,28.320,23.926,-1.953
1621558100.609,26.367,31.250,29.297,23.926,5.371
1621558100.613,23.438,34.668,29.297,20.508,3.906
1621558100.626,27.344,34.668,32.227,27.344,-33.203
1621558100.630,36.621,33.203,31.250,30.762,18.066
1621558100.634,41.992,36.133,29.785,29.297,62.500
1621558100.638,44.922,36.621,30.762,25.879,48.828
1621558100.642,44.434,34.180,29.785,15.625,60.059
1621558100.646,42.480,30.273,28.809,16.602,69.336
1621558100.650,44.922,31.250,31.250,27.344,33.203
1621558100.653,43.945,32.227,33.203,29.785,33.691
1621558100.657,40.039,28.320,31.738,30.273,68.848
1621558100.661,41.992,25.879,35.156,41.504,31.738
1621558100.665,46.875,25.879,35.156,44.922,19.043
1621558100.669,46.875,26.367,32.715,37.109,2.441
1621558100.664,41.016,29.785,32.227,33.203,-32.227
1621558100.668,34.668,29.785,35.645,36.621,51.758
1621558100.672,29.785,26.855,37.109,38.574,114.258
1621558100.676,28.320,27.832,34.668,34.668,62.988
1621558100.680,27.344,30.762,33.203,34.180,34.180
1621558100.684,23.438,29.785,31.250,36.621,1.953
1621558100.688,20.508,28.809,29.785,33.203,-50.781
1621558100.691,18.066,32.715,32.715,27.344,7.812
1621558100.695,18.555,36.621,33.691,24.414,32.227
1621558100.699,19.043,35.645,34.668,23.926,12.695
1621558100.703,17.578,33.691,33.203,26.367,42.480
1621558100.707,24.414,33.691,31.250,24.902,-3.906
1621558100.720,25.879,37.109,29.785,21.973,28.809
1621558100.724,21.973,36.621,30.273,20.020,79.590
1621558100.728,31.250,34.668,31.738,22.461,1.465
1621558100.732,35.156,33.691,31.738,24.414,3.418
1621558100.736,31.738,31.250,31.250,23.438,20.020
1621558100.740,36.621,31.738,32.227,25.391,-41.992
1621558100.744,40.039,32.227,32.715,27.832,-16.113
1621558100.747,42.969,32.715,30.273,31.738,-2.441
1621558100.751,40.527,30.762,29.785,33.691,2.930
1621558100.755,33.203,27.832,32.227,31.738,-11.719
1621558100.759,32.715,28.320,30.762,33.203,-38.574
1621558100.763,35.645,26.855,29.785,38.574,-4.395
1621558100.757,32.227,25.879,31.250,40.527,33.203
1621558100.761,29.785,26.855,32.715,43.945,36.621
1621558100.765,35.156,27.344,31.738,44.922,31.250
1621558100.769,38.086,31.250,29.297,46.387,43.945
1621558100.773,36.621,29.785,29.297,45.898,37.109
1621558100.777,32.715,29.297,30.762,44.434,2.441
1621558100.781,31.738,32.715,30.762,39.551,19.531
1621558100.784,30.273,31.250,31.250,37.109,22.949
1621558100.788,25.879,28.320,31.250,37.109,12.207
1621558100.792,19.531,28.320,28.320,30.762,12.207
1621558100.796,16.602,30.273,29.785,28.320,40.527
1621558100.800,15.625,31.250,30.273,28.320,44.434
1621558100.813,10.254,33.203,30.762,29.297,-15.625
1621558100.817,12.207,33.691,31.250,29.297,-11.719
1621558100.821,14.160,32.715,30.273,26.855,-26.367
1621558100.825,12.207,32.227,27.344,23.926,-38.574
1621558100.829,20.020,31.250,25.391,26.367,18.555
1621558100.833,28.320,31.250,27.344,29.297,64.453
1621558100.837,35.645,34.668,31.250,29.785,72.754
1621558100.840,38.574,35.645,30.762,29.297,26.855
1621558100.844,40.039,32.227,30.762,32.715,-1.465
1621558100.848,48.340,29.785,31.738,33.691,-9.766
1621558100.852,50.293,33.691,30.762,28.809,45.410
1621558100.856,49.805,32.715,31.250,27.344,93.262
1621558100.851,57.617,28.809,33.203,31.738,19.531
1621558100.855,61.523,27.832,30.273,30.273,-10.742
1621558100.859,54.688,27.832,31.738,31.250,8.789
1621558100.863,55.664,27.344,35.645,39.551,18.066
1621558100.867,58.105,24.902,31.250,44.922,19.531
1621558100.871,50.781,25.391,30.273,45.898,21.484
1621558100.875,40.527,28.320,34.180,44.922,16.602
1621558100.878,28.809,30.273,33.691,46.875,40.527
1621558100.882,22.949,30.273,32.227,44.922,50.293
1621558100.886,20.508,28.320,33.691,38.574,9.277
1621558100.890,10.742,29.785,33.203,31.738,2.930
1621558100.894,3.418,29.297,30.273,24.414,21.973
1621558100.908,0.488,29.297,30.762,18.066,33.691
1621558100.912,1.953,30.762,31.738,16.113,43.457
1621558100.916,5.859,29.297,28.320,15.137,31.738
1621558100.920,7.324,33.691,26.367,14.648,36.133
1621558100.924,15.625,34.668,30.762,19.531,21.484
1621558100.928,22.949,30.762,33.203,21.484,-36.133
1621558100.932,30.273,32.227,30.273,23.438,34.668
1621558100.935,35.156,37.598,29.297,21.484,83.496
1621558100.939,26.855,36.621,30.273,13.184,18.066
1621558100.943,22.949,31.738,26.855,8.789,61.523
1621558100.947,26.855,31.738,23.926,14.160,100.586
1621558100.951,29.297,34.668,24.902,17.578,49.805
1621558100.945,31.250,35.156,26.367,16.113,45.898
1621558100.949,32.715,31.250,28.320,19.531,64.941
1621558100.953,39.551,33.691,30.762,29.785,57.617
1621558100.957,47.852,37.598,30.762,34.668,21.973
1621558100.961,51.270,35.156,29.297,30.762,33.691
1621558100.965,50.781,34.668,27.832,30.273,58.105
1621558100.969,45.410,37.109,28.809,35.156,22.949
1621558100.972,43.945,32.715,31.250,46.387,-22.461
1621558100.976,47.363,30.762,35.645,52.246,-30.273
1621558100.980,48.340,32.227,41.016,53.711,-16.113
1621558100.984,42.969,30.273,42.480,50.781,0.977
1621558100.988,35.645,30.273,39.062,47.363,-29.297
1621558101.001,31.250,29.297,41.016,48.340,-1.953
1621558101.005,20.996,27.344,42.969,45.410,20.996
1621558101.009,13.184,26.367,37.598,37.598,-43.457
1621558101.013,5.371,25.391,33.203,33.203,-54.199
1621558101.017,-0.488,25.879,34.668,27.832,20.508
1621558101.021,-2.930,26.855,33.691,20.020,101.074
1621558101.025,-4.883,28.320,30.762,13.184,92.285
1621558101.028,1.465,29.297,31.738,9.277,23.926
1621558101.032,12.207,29.785,32.715,9.766,-10.742
1621558101.036,20.020,32.227,33.691,6.348,3.418
1621558101.040,26.855,32.227,33.203,7.812,10.254
1621558101.044,28.320,33.691,31.250,13.672,-10.742
1621558101.039,29.297,34.180,29.785,18.066,-4.883
1621558101.043,35.156,34.668,30.762,21.973,-34.668
1621558101.047,34.180,36.621,31.738,24.414,-80.078
1621558101.051,36.133,34.668,32.715,28.320,-2.930
1621558101.055,41.992,32.715,35.156,33.691,58.105
1621558101.059,41.016,32.715,36.133,34.668,28.320
1621558101.063,43.457,33.691,34.668,38.574,11.230
1621558101.066,43.945,34.180,36.133,42.969,79.590
1621558101.070,42.969,33.203,38.086,44.922,94.238
1621558101.074,47.852,31.738,39.551,51.758,56.641
1621558101.078,44.434,31.738,39.062,49.805,59.082
1621558101.082,40.527,30.273,38.086,43.945,39.062
1621558101.095,45.410,26.855,35.645,49.316,-6.836
1621558101.099,42.480,23.926,34.180,50.293,22.949
1621558101.103,35.645,24.414,36.133,43.945,46.875
1621558101.107,27.344,25.391,36.133,38.574,17.090
1621558101.111,22.949,22.949,36.133,33.203,34.180
1621558101.115,23.926,24.414,36.621,33.691,24.414
1621558101.119,19.531,26.367,36.133,31.738,9.766
1621558101.122,14.160,26.855,34.668,25.391,33.691
1621558101.126,9.766,26.367,31.250,21.973,26.855
1621558101.130,3.418,28.320,26.367,17.578,7.324
1621558101.134,-1.465,25.391,25.391,14.648,-18.555
1621558101.138,-0.977,20.996,25.391,12.695,45.898
1621558101.151,-0.488,23.926,24.902,10.254,97.168
1621558101.155,2.441,25.879,25.879,13.672,60.547
1621558101.159,8.301,25.391,25.391,13.184,49.805
1621558101.163,14.648,27.344,24.414,7.324,46.875
1621558101.167,26.855,30.762,26.367,11.230,59.570
1621558101.171,40.039,31.738,30.273,25.391,31.250
1621558101.175,46.875,34.180,30.762,31.738,-21.973
1621558101.178,49.805,37.109,31.738,30.762,-5.371
1621558101.182,57.617,36.621,32.715,34.180,49.805
1621558101.186,64.453,35.156,30.762,38.086,32.227
1621558101.190,66.895,34.668,27.832,39.062,39.062
1621558101.194,61.523,32.227,29.785,36.133,38.574
1621558101.188,55.176,30.273,30.273,30.762,24.414
1621558101.192,54.199,32.227,28.320,30.273,37.109
1621558101.196,50.293,34.668,30.762,34.668,49.805
1621558101.200,48.340,35.156,30.762,36.621,22.949
1621558101.204,44.922,32.715,31.738,37.598,62.012
1621558101.208,41.016,31.738,31.738,41.016,76.660
1621558101.212,45.410,30.273,30.273,44.922,12.207
1621558101.215,42.480,30.273,34.180,42.480,0.000
1621558101.219,38.086,30.762,38.086,41.016,31.250
1621558101.223,39.551,31.738,38.086,41.504,63.965
1621558101.227,36.621,30.273,37.109,38.574,77.148
1621558101.231,28.809,27.832,33.203,31.250,59.082
1621558101.226,23.438,25.879,33.691,22.461,-8.789
1621558101.230,21.484,24.414,32.227,17.090,25.879
1621558101.234,16.602,24.414,28.809,11.230,60.547
1621558101.238,12.207,26.855,28.809,7.812,87.891
1621558101.242,5.371,26.855,29.297,4.883,105.957
1621558101.246,-0.488,23.438,29.297,1.465,32.715
1621558101.250,-2.441,21.973,27.832,2.441,-18.066
1621558101.253,-0.488,20.996,29.785,8.789,13.672
1621558101.257,3.418,22.461,32.227,14.160,29.785
1621558101.261,7.812,23.438,34.668,17.090,-3.906
1621558101.265,13.672,22.461,33.691,18.555,-19.531
1621558101.269,16.602,20.996,31.250,19.043,-24.414
1621558101.282,22.461,22.949,31.738,26.855,16.113
1621558101.286,30.273,27.832,28.320,30.762,25.879
1621558101.290,31.738,29.785,29.785,28.809,4.395
1621558101.294,37.598,30.273,30.762,33.203,0.000
1621558101.298,43.945,29.297,26.855,40.039,-5.371
1621558101.302,43.457,27.344,24.414,39.062,-8.789
1621558101.306,41.016,28.320,25.391,39.062,45.410
1621558101.309,46.387,31.250,29.297,39.551,24.414
1621558101.313,53.711,32.227,31.250,40.039,-26.367
1621558101.317,51.758,32.715,27.832,38.086,39.551
1621558101.321,44.434,31.250,27.344,26.367,38.086
1621558101.325,36.621,29.297,34.180,22.949,-15.625
1621558101.320,33.203,32.227,37.598,29.297,24.414
1621558101.324,36.621,36.621,41.016,34.180,31.738
1621558101.328,28.809,30.762,38.086,28.320,6.836
1621558101.332,18.555,27.344,33.691,22.949,18.066
1621558101.336,20.996,31.250,36.621,27.832,-17.090
1621558101.340,24.414,37.598,41.504,33.203,-9.277
1621558101.344,11.230,40.039,34.668,13.184,36.133
1621558101.347,4.395,43.945,40.039,-0.488,-1.953
1621558101.351,0.000,43.945,39.551,-5.371,-19.531
1621558101.355,-15.137,34.668,34.180,-21.484,8.789
1621558101.359,-19.531,35.156,41.504,-30.762,42.480
1621558101.363,-40.527,38.086,41.016,-52.246,24.902
1621558101.376,-68.359,32.227,41.016,-78.125,-23.926
1621558101.380,-84.961,25.879,47.852,-92.773,-4.883
1621558101.384,-106.445,23.438,50.293,-111.328,32.715
1621558101.388,-130.371,20.508,49.316,-135.742,-40.039
1621558101.392,-146.973,20.996,47.852,-148.438,9.277
1621558101.396,-154.785,20.020,49.805,-154.297,104.980
1621558101.400,-164.551,20.996,49.316,-165.527,58.594
1621558101.403,-167.969,30.762,46.387,-177.734,43.945
1621558101.407,-173.828,33.203,42.480,-186.523,77.637
1621558101.411,-167.480,32.715,44.922,-177.734,-1.465
1621558101.415,-152.832,35.645,46.387,-163.574,-72.266
1621558101.419,-144.531,37.109,40.527,-157.227,-36.621
1621558101.414,-129.883,37.598,40.039,-143.555,50.781
1621558101.418,-115.234,33.203,45.410,-121.094,-4.395
1621558101.422,-93.262,30.762,39.551,-104.980,8.789
1621558101.426,-71.289,32.227,36.621,-90.820,22.461
1621558101.430,-62.012,29.297,37.598,-80.566,8.301
1621558101.434,-49.805,27.832,32.715,-65.430,9.277
1621558101.438,-37.109,26.855,33.691,-42.969,-21.973
1621558101.441,-26.855,26.367,33.203,-25.879,44.434
1621558101.445,-11.230,29.297,27.832,-6.348,16.602
1621558101.449,0.488,30.273,29.297,6.348,-29.785
1621558101.453,12.207,28.809,39.551,16.113,38.086
1621558101.457,24.414,26.367,41.016,27.344,44.434
1621558101.471,38.086,24.414,37.109,34.668,-5.371
1621558101.475,45.898,23.926,39.062,44.434,-19.531
1621558101.479,47.852,22.949,35.156,54.688,-25.879
1621558101.483,57.617,19.531,27.344,63.477,28.809
1621558101.487,64.453,18.555,29.785,69.336,73.242
1621558101.491,70.312,18.066,34.180,77.148,75.684
1621558101.495,84.961,17.090,35.156,89.844,77.637
1621558101.498,89.844,16.602,37.598,97.656,39.062
1621558101.502,87.891,17.578,35.156,95.703,-5.859
1621558101.506,99.609,18.066,37.598,96.680,-4.883
1621558101.510,108.887,19.531,36.621,99.121,50.293
1621558101.514,108.887,23.438,30.762,103.516,54.688
1621558101.507,106.445,27.832,26.367,99.121,30.273
1621558101.511,111.328,30.762,24.902,94.238,27.344
1621558101.515,117.188,31.250,24.902,94.727,6.348
1621558101.519,115.234,32.227,25.879,98.633,13.672
1621558101.523,115.723,29.297,23.926,100.586,-2.930
1621558101.527,116.211,27.832,20.996,103.516,-24.902
1621558101.531,109.375,27.832,24.414,112.305,2.441
1621558101.534,105.957,24.902,26.855,113.770,5.371
1621558101.538,108.887,27.832,26.855,116.699,12.695
1621558101.542,108.887,26.367,28.320,115.234,-31.250
1621558101.546,111.816,27.832,28.809,109.375,-41.992
1621558101.550,112.793,31.250,27.344,111.328,20.996
1621558101.564,111.816,32.227,30.273,118.652,5.859
1621558101.568,110.352,34.668,29.297,116.211,13.672
1621558101.572,105.957,33.203,27.832,108.887,19.531
1621558101.576,102.051,31.250,28.320,107.910,10.254
1621558101.580,104.492,33.691,26.367,108.887,58.105
1621558101.584,104.980,37.109,27.832,110.352,59.082
1621558101.588,101.562,32.227,30.762,115.234,34.180
1621558101.591,105.957,27.832,31.250,124.512,34.180
1621558101.595,104.980,28.320,28.809,134.277,26.855
1621558101.599,105.957,27.344,28.809,146.484,12.695
1621558101.603,108.398,28.320,27.344,153.809,71.289
1621558101.607,102.051,27.832,25.879,152.832,49.805
1621558101.601,95.215,28.320,25.391,147.949,-3.418
1621558101.605,85.938,30.273,22.949,143.066,-10.742
1621558101.609,80.566,31.738,25.391,142.578,28.809
1621558101.613,77.148,31.738,23.926,139.160,127.930
1621558101.617,74.707,30.273,25.391,133.301,29.297
1621558101.621,71.777,32.227,27.344,134.277,-29.297
1621558101.625,71.777,29.785,26.367,135.254,-7.324
1621558101.628,72.266,27.832,25.879,136.230,41.992
1621558101.632,74.707,27.344,27.344,140.625,58.594
1621558101.636,80.078,27.832,28.809,144.531,36.621
1621558101.640,81.543,30.273,26.367,146.973,97.168
1621558101.644,81.055,33.691,25.879,145.996,72.266
1621558101.658,78.125,37.109,24.902,137.695,70.312
1621558101.662,73.242,34.668,23.926,132.324,49.805
1621558101.666,67.383,35.156,23.926,132.812,45.410
1621558101.670,55.176,33.691,21.484,126.465,54.199
1621558101.674,51.270,32.715,23.926,123.535,27.344
1621558101.678,53.223,35.156,28.809,131.836,32.715
1621558101.682,51.270,32.227,28.320,128.906,60.059
1621558101.685,47.363,27.832,28.809,121.094,113.281
1621558101.689,46.387,29.785,30.762,114.258,40.039
1621558101.693,47.363,32.227,29.297,100.586,-0.977
1621558101.697,49.805,29.785,26.367,88.379,116.699
1621558101.701,48.828,30.762,26.855,71.289,55.664
1621558101.695,47.363,33.203,25.391,49.805,11.230
1621558101.699,50.781,30.762,24.902,43.457,55.176
1621558101.703,53.711,33.691,26.367,42.969,20.996
1621558101.707,51.758,31.250,25.391,36.133,38.574
1621558101.711,55.664,26.855,26.367,34.180,67.383
1621558101.715,53.223,31.250,26.367,30.273,64.941
1621558101.719,47.363,27.832,25.879,25.391,37.109
1621558101.722,45.410,25.391,28.809,26.367,58.594
1621558101.726,39.062,27.832,27.832,20.020,32.715
1621558101.730,32.227,27.344,26.367,12.695,3.418
1621558101.734,32.227,24.414,28.809,7.324,72.754
1621558101.738,35.645,26.367,28.809,6.836,43.457
1621558101.751,32.227,28.320,24.902,4.395,-65.918
1621558101.755,27.832,26.855,19.531,-2.930,-71.289
1621558101.759,31.250,30.273,20.508,-0.488,2.930
1621558101.763,33.203,30.273,22.461,0.977,48.828
1621558101.767,29.297,28.320,21.484,-3.418,22.461
1621558101.771,31.738,29.785,23.438,-6.836,-5.371
1621558101.775,35.645,27.832,24.902,-2.930,58.594
1621558101.778,38.086,26.855,24.902,1.465,-0.488
1621558101.782,37.598,32.715,21.484,2.441,-66.895
1621558101.786,36.133,33.691,20.996,0.488,14.160
1621558101.790,38.086,31.738,21.484,-2.930,45.898
1621558101.794,40.039,33.203,20.996,0.000,-17.578
1621558101.789,43.457,31.738,25.391,6.836,-6.836
1621558101.793,39.551,32.227,29.297,6.348,42.480
1621558101.797,29.785,31.250,29.785,-2.930,52.734
1621558101.801,32.715,29.297,27.344,-0.977,54.199
1621558101.805,36.621,30.762,24.902,7.324,36.621
1621558101.809,39.551,31.738,29.785,7.324,73.730
1621558101.813,40.527,31.738,32.227,6.348,47.852
1621558101.816,37.598,34.180,29.785,7.812,14.648
1621558101.820,37.109,33.203,32.227,8.789,21.973
1621558101.824,35.645,34.668,32.715,9.766,-15.625
1621558101.828,30.273,33.203,28.809,6.836,-2.441
1621558101.832,27.344,31.738,28.320,5.859,-26.367
1621558101.845,27.344,36.133,33.203,6.836,-18.066
1621558101.849,23.926,31.738,30.273,3.906,82.031
1621558101.853,22.949,27.832,25.879,0.977,47.852
1621558101.857,22.461,29.785,26.367,-3.418,-9.277
1621558101.861,15.625,31.738,26.855,-7.324,16.602
1621558101.865,11.230,28.320,27.344,-4.395,65.430
1621558101.869,12.695,23.926,26.855,1.953,46.875
1621558101.872,13.672,28.320,28.809,4.883,47.852
1621558101.876,21.973,31.250,28.809,4.883,20.996
1621558101.880,33.203,28.320,31.250,10.742,-10.254
1621558101.884,38.086,29.297,32.227,11.719,29.297
1621558101.888,38.086,29.785,32.227,11.719,121.094
1621558101.882,41.992,28.809,36.621,16.113,110.840
1621558101.886,43.457,32.227,34.180,20.020,4.395
1621558101.890,40.039,29.297,29.785,20.996,18.555
1621558101.894,33.691,28.320,31.738,17.578,18.555
1621558101.898,32.227,31.250,28.320,13.184,-11.719
1621558101.902,34.668,33.203,26.855,15.137,65.918
1621558101.906,35.645,37.598,30.273,20.508,108.887
1621558101.909,37.109,40.039,29.785,17.090,30.273
1621558101.913,40.527,40.039,32.227,13.184,-30.762
1621558101.917,44.922,39.551,33.691,20.996,17.578
1621558101.921,46.387,38.086,31.738,28.809,60.547
1621558101.925,42.969,32.715,32.227,24.414,-6.348
1621558101.939,39.062,29.297,35.645,23.926,-25.879
1621558101.943,41.992,32.227,36.133,26.855,20.020
1621558101.947,43.457,32.227,36.621,30.273,14.648
1621558101.951,38.574,34.668,38.086,28.809,-10.742
1621558101.955,32.227,35.645,37.109,23.438,32.227
1621558101.959,30.762,29.785,38.574,25.879,47.852
1621558101.963,34.668,28.320,38.086,29.297,33.203
1621558101.966,26.855,29.297,35.156,22.949,18.555
1621558101.970,27.344,29.297,33.203,20.020,14.160
1621558101.974,31.738,31.738,33.203,24.902,47.363
1621558101.978,26.367,32.715,32.227,20.996,64.453
1621558101.982,23.926,29.297,32.715,14.648,42.969
1621558101.978,22.461,30.273,35.156,14.648,7.324
1621558101.982,20.508,30.762,32.227,9.766,-31.250
1621558101.986,20.508,28.320,29.297,4.395,11.230
1621558101.990,23.926,26.855,29.297,7.812,11.230
1621558101.994,24.902,28.809,29.297,11.230,-18.066
1621558101.998,23.926,31.250,30.762,14.648,15.625
1621558102.002,22.461,33.203,30.273,25.391,-33.691
1621558102.005,27.832,36.133,33.203,34.180,-9.766
1621558102.009,32.227,36.133,34.180,36.621,31.738
1621558102.013,32.227,33.691,35.156,34.180,-5.859
1621558102.017,35.156,31.250,36.621,38.086,18.555
1621558102.021,37.598,31.250,33.691,40.039,22.949
1621558102.033,39.551,28.809,35.156,40.039,26.367
1621558102.037,41.992,28.320,36.621,42.480,47.363
1621558102.041,40.039,28.320,33.691,39.551,-0.488
1621558102.045,40.039,30.762,32.715,39.062,-7.324
1621558102.049,38.086,34.180,34.180,35.156,39.062
1621558102.053,33.203,34.668,32.227,27.832,55.176
1621558102.057,30.762,35.645,34.668,25.879,87.891
1621558102.060,32.227,35.645,39.062,23.926,72.754
1621558102.064,35.156,35.645,41.016,24.414,47.363
1621558102.068,38.574,37.109,39.551,23.438,38.574
1621558102.072,41.016,36.621,37.109,19.531,26.367
1621558102.076,39.062,30.762,38.086,22.461,51.758
1621558102.070,39.062,28.809,38.086,26.855,20.996
1621558102.074,38.086,30.273,38.574,27.344,-25.391
1621558102.078,36.133,27.344,40.039,29.297,12.207
1621558102.082,37.598,31.250,38.086,28.320,6.348
1621558102.086,40.039,35.645,38.574,29.297,-30.273
1621558102.090,40.527,31.250,36.621,28.809,-4.395
1621558102.094,36.621,29.785,32.227,25.879,56.152
1621558102.097,29.297,27.344,33.691,25.391,53.223
1621558102.101,24.414,26.855,32.227,26.367,0.977
1621558102.105,28.320,29.785,32.227,32.227,-0.977
1621558102.109,32.227,32.227,37.598,36.621,-36.133
1621558102.113,31.738,32.715,40.527,37.109,-17.578
1621558102.145,32.227,31.738,39.062,39.551,74.219
1621558102.149,33.203,33.203,36.621,44.434,81.543
1621558102.153,36.133,32.715,33.203,42.480,52.246
1621558102.157,36.133,33.691,29.785,31.738,21.973
1621558102.161,32.227,35.156,26.367,23.926,22.949
1621558102.165,35.645,35.156,25.879,25.879,54.199
1621558102.169,37.109,37.109,25.879,27.832,24.414
1621558102.172,32.227,38.574,26.367,20.508,45.410
1621558102.176,34.180,37.598,28.320,16.113,63.477
1621558102.180,38.086,34.180,26.367,20.996,31.738
1621558102.184,42.969,35.156,24.902,20.996,31.250
1621558102.188,42.480,38.086,26.367,18.555,19.043
1621558102.165,40.039,36.621,27.832,15.625,36.621
1621558102.169,38.574,35.156,27.344,14.160,55.176
1621558102.173,33.691,33.691,29.785,13.672,41.016
1621558102.177,33.203,31.738,30.762,11.719,25.391
1621558102.181,33.691,33.691,30.273,11.719,-5.859
1621558102.185,38.574,32.715,31.738,19.043,-11.230
1621558102.189,39.551,28.809,33.203,25.391,0.488
1621558102.192,35.645,28.809,35.645,29.785,4.883
1621558102.196,33.203,28.320,37.109,31.250,20.020
1621558102.200,30.762,29.297,35.156,28.320,51.270
1621558102.204,35.645,29.785,34.180,34.668,34.668
1621558102.208,34.668,29.785,34.180,35.645,59.570
1621558102.220,25.391,26.367,34.668,30.273,55.176
1621558102.224,19.531,24.902,35.156,29.785,5.859
1621558102.228,23.438,26.855,37.109,33.203,13.184
1621558102.232,30.273,26.855,38.574,40.527,80.566
1621558102.236,31.250,27.832,37.598,42.480,43.457
1621558102.240,31.250,30.273,38.086,41.992,48.340
1621558102.244,36.133,29.785,38.086,48.828,106.445
1621558102.247,40.039,28.809,35.645,46.875,36.621
1621558102.251,40.039,30.762,33.203,43.457,4.395
1621558102.255,35.156,32.715,31.738,37.109,18.066
1621558102.259,32.227,33.203,32.227,35.156,27.344
1621558102.263,37.109,32.715,34.668,36.621,23.438
1621558102.257,35.645,34.668,34.668,29.297,-60.059
1621558102.261,33.203,37.109,32.715,22.949,-85.938
1621558102.265,36.621,37.109,36.133,27.832,-21.973
1621558102.269,34.668,37.598,35.645,31.250,32.715
1621558102.273,35.156,37.598,33.203,30.762,81.543
1621558102.277,34.180,36.621,33.203,29.785,15.625
1621558102.281,28.809,35.645,32.715,26.367,-13.672
1621558102.284,24.414,31.738,35.156,25.391,-2.930
1621558102.288,21.973,30.273,35.156,21.973,41.992
1621558102.292,19.531,32.227,33.203,13.672,40.527
1621558102.296,16.113,30.762,33.203,9.277,-10.254
1621558102.300,27.344,27.344,34.668,20.020,-3.418
1621558102.314,34.668,28.809,35.156,28.809,27.344
1621558102.318,31.738,29.297,33.691,25.391,45.410
1621558102.322,32.227,30.273,29.785,19.043,45.410
1621558102.326,31.250,29.297,29.785,21.973,44.434
1621558102.330,29.785,27.832,31.250,27.832,-36.621
1621558102.334,27.344,28.809,30.273,25.879,31.250
1621558102.338,29.297,31.250,33.691,21.484,83.008
1621558102.341,30.273,34.180,35.645,21.973,58.105
1621558102.345,30.762,34.180,33.203,26.367,75.684
1621558102.349,36.133,34.180,35.156,33.203,56.641
1621558102.353,43.945,33.691,36.621,40.527,43.945
1621558102.357,46.387,33.691,35.156,42.480,7.324
1621558102.352,45.898,35.645,33.691,44.922,-8.789
1621558102.356,51.270,35.156,33.203,52.734,19.043
1621558102.360,47.363,35.156,30.273,51.758,-6.836
1621558102.364,39.551,37.109,33.203,46.387,43.945
1621558102.368,36.133,34.180,36.621,46.875,64.941
1621558102.372,30.273,30.273,36.621,38.574,16.602
1621558102.376,26.855,29.785,35.156,30.273,58.594
1621558102.379,29.297,29.785,33.203,32.227,26.855
1621558102.383,31.250,28.809,32.715,30.273,-0.977
1621558102.387,33.691,27.832,33.203,31.738,17.578
1621558102.391,36.133,29.297,35.645,35.645,-7.812
1621558102.395,36.621,30.762,37.598,33.203,-21.484
1621558102.407,36.133,30.273,35.156,31.250,38.574
1621558102.411,35.156,31.738,33.691,30.273,69.336
1621558102.415,36.133,31.250,33.691,29.785,31.738
1621558102.419,38.574,35.156,33.203,26.855,41.504
1621558102.423,41.504,39.551,34.180,25.879,52.246
1621558102.427,41.992,35.645,34.180,27.832,9.277
1621558102.431,38.086,34.668,34.180,26.367,-5.371
1621558102.434,36.621,32.715,37.109,29.297,-11.230
1621558102.438,37.109,31.738,38.574,31.250,23.438
1621558102.442,34.180,31.738,35.645,35.156,37.598
1621558102.446,31.738,31.738,34.180,39.551,32.227
1621558102.450,28.809,30.762,35.156,40.039,39.551
1621558102.445,25.879,27.344,37.109,36.133,7.812
1621558102.449,26.855,29.785,36.133,33.691,-5.859
1621558102.453,29.785,30.273,34.668,33.203,5.371
1621558102.457,24.902,27.344,31.738,33.203,53.223
1621558102.461,19.043,31.250,31.738,29.785,66.895
1621558102.465,13.184,34.668,32.715,24.414,17.578
1621558102.469,19.043,32.227,31.738,28.809,-17.090
1621558102.472,26.855,32.227,32.227,28.809,18.555
1621558102.476,23.926,31.250,31.250,22.949,-11.719
1621558102.480,29.297,31.738,33.203,26.367,-2.441
1621558102.484,28.320,30.273,37.598,30.762,46.387
1621558102.488,28.320,27.344,37.598,36.133,21.484
1621558102.501,29.297,28.320,34.668,35.645,53.223
1621558102.505,27.832,29.785,35.645,33.203,24.414
1621558102.509,34.180,29.785,35.156,34.668,15.625
1621558102.513,37.109,30.762,33.691,31.738,40.527
1621558102.517,34.180,32.227,33.203,28.320,-35.156
1621558102.521,34.180,32.227,30.762,28.320,15.625
1621558102.525,37.109,33.203,29.297,23.438,82.031
1621558102.528,41.504,32.715,32.715,21.973,43.945
1621558102.532,42.480,28.809,34.180,24.902,11.719
1621558102.536,42.969,27.344,31.738,24.414,2.930
1621558102.540,40.527,28.320,32.227,24.414,44.922
1621558102.544,36.133,28.320,34.668,25.391,26.855
1621558102.539,31.738,27.344,33.691,27.344,77.148
1621558102.543,21.973,26.855,38.574,28.320,127.930
1621558102.547,18.066,24.902,39.062,27.832,-2.930
1621558102.551,20.996,23.926,36.133,27.344,-24.902
1621558102.555,25.879,23.926,36.621,27.832,2.930
1621558102.559,26.367,25.391,35.645,22.949,6.348
1621558102.563,28.809,27.832,34.668,21.973,-0.488
1621558102.566,39.551,32.227,33.691,25.879,-0.488
1621558102.570,44.434,34.180,33.203,29.297,49.805
1621558102.574,44.922,36.621,36.621,31.738,22.461
1621558102.578,41.016,39.062,38.086,27.832,-5.371
1621558102.582,36.133,36.133,35.645,30.273,3.418
1621558102.595,38.086,34.180,36.133,33.691,10.742
1621558102.599,39.062,34.180,34.180,35.156,59.082
1621558102.603,40.039,34.180,36.133,34.668,78.125
1621558102.607,36.133,31.250,36.621,28.809,0.977
1621558102.611,30.273,31.250,32.715,30.273,-10.742
1621558102.615,30.273,30.762,33.691,32.227,-14.160
1621558102.619,26.855,29.297,32.227,27.344,6.348
1621558102.622,17.090,31.250,30.273,20.020,30.762
1621558102.626,16.113,29.785,32.227,20.996,30.273
1621558102.630,22.949,27.832,32.227,30.762,47.363
1621558102.634,22.461,27.344,31.738,27.832,56.641
1621558102.638,28.320,27.832,32.715,22.461,77.148
1621558102.632,34.180,26.367,33.203,24.414,73.730
1621558102.636,33.203,24.414,30.273,26.367,14.648
1621558102.640,30.762,28.320,25.879,23.926,-32.715
1621558102.644,31.250,30.762,26.367,22.461,27.832
1621558102.648,36.133,33.203,28.809,32.227,22.461
1621558102.652,36.621,33.203,27.344,34.668,-4.395
1621558102.656,36.621,30.762,27.344,32.715,9.766
1621558102.659,33.203,31.250,27.832,26.855,46.387
1621558102.663,33.203,33.203,28.809,22.949,139.648
1621558102.667,38.574,36.133,31.738,24.414,57.129
1621558102.671,46.875,37.598,33.203,27.832,-26.367
1621558102.675,44.434,37.109,33.203,30.762,33.203
1621558102.688,38.086,36.621,34.180,30.273,84.473
1621558102.692,36.133,35.156,34.180,33.203,65.430
1621558102.696,35.645,34.668,33.691,35.645,15.137
1621558102.700,36.133,34.668,35.156,33.203,43.945
1621558102.704,30.762,31.738,37.109,29.297,26.367
1621558102.708,25.391,30.273,36.621,27.832,23.438
1621558102.712,23.926,32.227,38.574,33.203,67.383
1621558102.715,21.484,29.785,39.062,31.250,35.645
1621558102.719,23.438,26.367,38.574,26.855,20.508
1621558102.723,22.949,25.391,38.086,23.438,51.758
1621558102.727,20.508,25.879,33.691,20.020,46.875
1621558102.731,22.461,30.273,29.785,18.555,36.621
1621558102.726,19.531,32.227,29.297,11.230,27.832
1621558102.730,16.113,27.344,28.809,11.719,24.414
1621558102.734,16.602,23.438,27.344,17.578,13.672
1621558102.738,22.461,25.879,30.273,22.461,23.926
1621558102.742,25.879,27.832,28.320,21.484,27.344
1621558102.746,29.297,26.855,26.367,19.043,-8.789
1621558102.750,30.273,28.809,25.879,23.438,-11.719
1621558102.753,32.715,28.809,25.391,31.738,27.344
1621558102.757,38.574,28.809,26.855,32.227,32.715
1621558102.761,36.133,32.227,26.855,29.785,-16.602
1621558102.765,36.621,32.227,25.879,29.785,-11.230
1621558102.769,45.898,32.715,25.391,33.203,33.691
1621558102.782,46.387,31.250,26.367,33.691,-2.930
1621558102.786,36.621,29.297,27.832,31.738,-9.277
1621558102.790,35.156,27.344,26.367,33.203,-31.250
1621558102.794,38.574,29.785,27.344,38.574,-36.133
1621558102.798,39.551,32.715,28.320,34.180,2.441
1621558102.802,37.109,31.250,27.344,27.344,-26.855
1621558102.806,29.297,32.227,27.344,22.461,-30.273
1621558102.809,24.414,34.668,26.855,14.160,-29.785
1621558102.813,21.973,35.645,23.438,14.648,-8.301
1621558102.817,17.578,32.715,24.414,13.672,-0.488
1621558102.821,10.742,28.320,27.344,7.812,-23.926
1621558102.825,12.695,27.832,26.855,8.789,-24.414
1621558102.820,19.043,28.320,27.832,10.742,-22.949
1621558102.824,20.020,31.250,29.297,12.695,28.320
1621558102.828,19.531,31.738,29.297,16.602,54.688
1621558102.832,21.484,28.320,27.832,21.484,44.434
1621558102.836,24.414,27.832,28.320,30.762,75.684
1621558102.840,27.832,24.902,31.250,37.598,52.246
1621558102.844,32.227,24.902,32.715,42.480,29.297
1621558102.847,34.180,26.367,31.250,43.457,27.344
1621558102.851,30.762,23.926,31.250,39.551,-7.324
1621558102.855,33.691,26.855,30.273,38.574,-10.254
1621558102.859,37.109,31.250,29.785,36.621,-23.438
1621558102.863,35.156,33.203,29.785,35.645,-23.926
1621558102.876,40.527,31.738,30.273,38.574,1.953
1621558102.880,44.434,32.227,29.297,40.527,34.180
1621558102.884,41.016,33.203,29.785,36.621,17.578
1621558102.888,36.621,32.715,33.203,35.156,21.973
1621558102.892,35.156,31.738,30.762,34.668,66.895
1621558102.896,36.133,31.250,30.273,33.691,70.801
1621558102.900,39.551,34.668,33.691,29.297,102.051
1621558102.903,41.016,38.574,34.180,27.344,79.590
1621558102.907,38.086,37.598,32.715,20.996,7.324
1621558102.911,36.133,35.645,30.762,19.043,33.203
1621558102.915,34.668,36.133,31.250,22.949,29.297
1621558102.919,30.273,34.668,28.320,20.508,31.738
1621558102.913,28.320,32.227,24.414,18.066,97.656
1621558102.917,26.367,31.738,25.879,15.137,52.246
1621558102.921,25.391,31.738,29.297,22.461,31.738
1621558102.925,21.973,31.738,31.738,25.879,25.879
1621558102.929,19.531,33.203,31.738,21.973,-26.367
1621558102.933,20.508,33.203,32.715,23.438,19.531
1621558102.937,27.832,31.738,36.133,29.785,36.133
1621558102.940,26.367,31.250,35.645,32.227,12.695
1621558102.944,17.578,31.250,35.156,29.785,1.953
1621558102.948,19.043,31.738,36.621,30.273,-17.578
1621558102.952,25.879,30.762,36.621,37.109,38.574
1621558102.956,31.250,30.273,37.598,43.457,-0.488
1621558102.970,28.320,28.809,35.645,39.551,-16.113
1621558102.974,23.926,27.344,32.227,34.180,37.109
1621558102.978,22.461,26.367,32.227,36.621,14.160
1621558102.982,19.531,28.320,31.250,38.086,48.340
1621558102.986,20.996,29.785,30.762,28.320,120.117
1621558102.990,27.832,28.809,30.273,21.484,35.645
1621558102.994,34.180,29.297,30.273,26.367,-22.949
1621558102.997,37.598,31.738,33.203,33.691,44.922
1621558103.001,40.039,34.668,33.691,27.344,37.109
1621558103.005,40.527,35.156,31.738,22.949,57.129
1621558103.009,42.480,34.668,27.832,25.879,111.328
1621558103.013,43.945,33.691,25.879,22.461,-5.371
1621558103.026,43.945,33.691,27.344,19.043,-37.109
1621558103.030,41.992,32.227,30.762,19.043,-24.902
1621558103.034,43.457,27.832,33.203,21.973,-46.387
1621558103.038,41.992,29.297,33.203,28.320,-0.977
1621558103.042,41.992,32.227,31.738,30.762,44.922
1621558103.046,42.480,33.691,33.691,28.809,48.828
1621558103.050,32.227,32.715,34.180,26.855,12.207
1621558103.053,28.320,35.156,32.715,31.738,37.598
1621558103.057,26.367,35.645,35.156,37.109,58.105
1621558103.061,20.508,33.691,36.133,35.645,29.297
1621558103.065,22.949,35.156,37.109,34.668,36.133
1621558103.069,26.855,34.180,38.574,36.621,12.695
1621558103.065,25.879,29.785,35.645,38.574,13.184
1621558103.069,25.879,29.785,35.645,40.039,27.832
1621558103.073,27.832,33.691,33.691,38.086,-0.977
1621558103.077,31.738,30.273,31.250,40.039,-30.273
1621558103.081,39.062,29.297,33.203,47.852,-22.461
1621558103.085,41.016,30.762,34.668,50.781,33.203
1621558103.089,43.457,29.297,33.691,49.316,49.316
1621558103.092,44.434,26.855,33.691,47.363,20.020
1621558103.096,35.156,25.391,30.762,46.387,-42.969
1621558103.100,31.250,24.902,30.762,45.410,-28.809
1621558103.104,32.227,24.902,31.738,38.086,41.992
1621558103.108,31.250,25.391,30.762,29.785,16.113
1621558103.101,34.668,26.367,28.320,26.855,-45.410
1621558103.105,34.668,31.250,26.855,25.391,-12.695
1621558103.109,29.297,29.297,26.367,21.484,36.621
1621558103.113,31.738,28.320,26.367,13.672,32.715
1621558103.117,34.180,34.180,22.949,8.789,55.176
1621558103.121,34.180,35.156,22.461,10.254,33.203
1621558103.125,34.180,34.668,23.438,10.254,-20.508
1621558103.128,33.203,34.668,23.438,13.184,-10.742
1621558103.132,34.180,33.203,25.879,20.020,0.488
1621558103.136,33.203,32.227,26.855,22.949,23.438
1621558103.140,32.227,31.250,27.832,25.391,27.832
1621558103.144,30.273,27.832,29.785,25.879,5.859
1621558103.176,26.855,26.367,30.273,26.855,27.344
1621558103.180,30.273,27.344,30.273,34.180,16.602
1621558103.184,37.598,28.320,32.715,39.551,10.254
1621558103.188,40.039,31.250,33.691,44.922,2.930
1621558103.192,41.504,33.203,33.203,48.340,26.367
1621558103.196,41.504,30.273,30.273,44.434,62.012
1621558103.200,45.898,30.273,33.203,46.387,78.125
1621558103.203,47.363,29.785,37.598,43.945,65.918
1621558103.207,39.062,29.785,38.574,40.039,26.367
1621558103.211,31.738,31.250,36.621,37.109,11.719
1621558103.215,24.414,28.809,36.621,32.715,35.156
1621558103.219,22.461,31.250,37.109,30.273,42.480
1621558103.196,23.438,30.762,35.645,23.926,26.367
1621558103.200,21.484,26.855,33.691,17.090,11.719
1621558103.204,25.879,30.762,31.250,19.531,-6.836
1621558103.208,31.738,32.227,32.227,27.344,33.203
1621558103.212,33.691,33.203,33.691,24.902,66.406
1621558103.216,34.668,34.668,31.250,22.461,49.805
1621558103.220,37.598,31.738,29.297,25.879,61.523
1621558103.223,41.016,29.297,32.715,24.414,96.680
1621558103.227,38.574,31.738,35.156,20.996,117.188
1621558103.231,35.645,34.180,32.715,12.695,57.617
1621558103.235,32.227,31.738,32.227,7.324,-0.488
1621558103.239,26.367,31.250,29.297,3.906,72.266
1621558103.251,25.391,34.668,27.344,4.395,111.328
1621558103.255,27.344,35.156,29.297,14.160,106.934
1621558103.259,29.297,33.691,29.297,20.508,58.594
1621558103.263,32.715,33.691,33.203,35.156,-12.695
1621558103.267,37.598,32.715,37.109,43.945,0.488
1621558103.271,41.992,30.762,37.598,45.898,10.742
1621558103.275,41.504,32.227,37.109,51.758,10.254
1621558103.278,39.062,31.250,35.156,53.223,-14.648
1621558103.282,37.598,27.344,32.715,48.828,0.000
1621558103.286,37.109,28.809,34.668,42.480,16.602
1621558103.290,36.133,28.320,36.621,42.480,20.508
1621558103.294,32.227,31.738,32.715,39.551,43.945
1621558103.289,33.203,33.203,32.227,37.109,47.852
1621558103.293,33.203,31.250,35.645,38.086,34.180
1621558103.297,30.762,31.738,36.621,35.645,31.738
1621558103.301,33.203,29.785,32.715,33.691,59.570
1621558103.305,32.715,30.273,28.320,33.203,52.246
1621558103.309,32.227,32.227,29.297,32.227,18.066
1621558103.313,32.227,32.715,30.762,32.227,46.387
1621558103.316,28.809,33.691,28.809,30.273,28.809
1621558103.320,27.832,33.203,26.855,24.902,23.926
1621558103.324,30.273,31.250,29.785,19.043,77.148
1621558103.328,26.855,34.668,33.203,12.207,58.594
1621558103.332,26.855,34.668,30.273,9.766,1.465
1621558103.345,31.738,35.156,27.832,9.277,50.293
1621558103.349,32.227,37.109,26.367,7.812,41.504
1621558103.353,33.691,35.645,26.855,11.719,-13.672
1621558103.357,32.715,36.133,29.785,13.184,-7.324
1621558103.361,35.645,38.086,31.738,16.113,48.340
1621558103.365,42.969,41.016,34.180,21.973,27.832
1621558103.369,38.086,39.062,35.645,22.461,-14.160
1621558103.372,33.691,37.109,36.133,25.879,-21.484
1621558103.376,37.598,38.086,36.621,30.762,-1.465
1621558103.380,35.645,35.156,35.645,31.738,18.555
1621558103.384,33.203,29.785,37.109,34.668,42.969
1621558103.388,30.273,27.344,36.133,36.621,45.410
1621558103.382,31.250,28.809,34.668,38.574,75.195
1621558103.386,32.227,28.320,31.738,41.992,89.844
1621558103.390,30.762,26.855,33.203,38.574,42.480
1621558103.394,35.156,30.273,37.109,37.109,40.039
1621558103.398,34.668,32.227,33.203,39.551,37.109
1621558103.402,31.250,29.297,30.762,38.086,15.625
1621558103.406,35.645,29.785,32.715,38.086,26.855
1621558103.409,31.250,31.250,31.738,36.621,41.016
1621558103.413,26.367,28.320,31.250,33.691,16.113
1621558103.417,28.809,27.832,32.715,36.621,11.719
1621558103.421,30.762,29.785,29.785,31.738,57.617
1621558103.425,35.156,30.273,29.297,26.367,40.039
1621558103.438,38.574,33.203,26.855,30.762,38.574
1621558103.442,41.992,35.645,24.902,29.297,56.641
1621558103.446,46.875,36.133,25.879,21.484,16.113
1621558103.450,45.898,38.086,27.344,20.996,57.617
1621558103.454,41.016,35.645,28.809,23.926,117.676
1621558103.458,40.527,30.762,28.809,21.973,54.199
1621558103.462,35.156,29.297,29.297,20.996,-16.113
1621558103.465,32.227,30.762,29.785,20.020,22.949
1621558103.469,31.250,32.227,31.738,18.555,75.195
1621558103.473,27.344,28.809,32.715,20.020,68.359
1621558103.477,26.367,30.273,31.738,29.297,48.340
1621558103.481,27.344,31.250,32.715,39.551,9.277
1621558103.476,28.320,27.344,35.156,40.527,23.438
1621558103.480,24.902,27.344,35.645,36.621,-5.859
1621558103.484,24.902,28.320,35.156,38.574,-34.668
1621558103.488,30.762,32.227,37.109,45.410,-1.953
1621558103.492,30.273,34.180,39.062,46.387,-3.418
1621558103.496,28.320,34.668,38.574,41.992,17.578
1621558103.500,28.320,36.621,36.621,39.551,31.250
1621558103.503,26.855,35.156,32.227,35.645,12.207
1621558103.507,23.926,33.203,29.297,28.809,-15.137
1621558103.511,20.996,29.785,30.762,25.879,-4.883
1621558103.515,22.461,26.367,30.273,28.320,-11.719
1621558103.519,21.484,26.855,29.297,27.832,-37.109
1621558103.532,22.461,26.855,30.762,25.879,-20.996
1621558103.536,24.414,26.367,31.250,23.438,-21.484
1621558103.540,27.344,28.809,32.715,23.438,-50.781
1621558103.544,31.738,30.273,31.250,24.414,-26.367
1621558103.548,33.203,32.715,29.297,24.902,17.090
1621558103.552,38.574,34.668,30.273,20.508,31.250
1621558103.556,40.527,34.180,28.320,13.184,22.949
1621558103.559,34.668,33.691,26.855,9.766,21.973
1621558103.563,36.133,33.691,28.809,12.695,37.598
1621558103.567,38.574,34.668,29.785,15.137,57.617
1621558103.571,37.598,33.691,28.809,18.555,45.898
1621558103.575,38.086,32.715,28.809,23.438,28.320
1621558103.570,37.598,34.668,28.809,26.367,7.324
1621558103.574,39.062,35.645,30.762,26.855,-3.418
1621558103.578,37.598,33.203,29.785,26.367,31.250
1621558103.582,35.156,33.691,28.320,30.273,67.383
1621558103.586,37.109,34.668,33.203,37.598,48.828
1621558103.590,36.621,31.250,34.668,42.480,22.461
1621558103.594,33.691,31.738,31.250,42.969,15.137
1621558103.597,34.668,28.809,29.785,38.086,-27.344
1621558103.601,38.574,26.367,32.227,42.480,6.348
1621558103.605,41.504,29.297,32.227,41.992,68.359
1621558103.609,41.016,30.273,28.809,34.180,40.527
1621558103.613,39.551,33.203,26.855,31.738,-8.301
1621558103.626,41.992,33.203,29.297,29.785,-14.160
1621558103.630,38.574,31.738,30.762,27.832,24.902
1621558103.634,28.320,30.762,29.785,22.949,7.324
1621558103.638,27.344,31.738,28.320,22.949,-21.484
1621558103.642,28.809,30.273,24.902,20.996,25.879
1621558103.646,32.715,26.855,26.367,25.879,38.574
1621558103.650,41.016,29.297,32.715,32.715,17.090
1621558103.653,45.410,28.809,38.086,31.738,36.621
1621558103.657,44.434,30.273,36.133,29.297,41.504
1621558103.661,38.574,34.180,32.227,27.832,17.090
1621558103.665,35.645,36.133,33.691,29.785,25.391
1621558103.669,33.203,36.621,35.645,18.555,74.219
1621558103.665,23.926,35.645,35.156,12.695,85.938
1621558103.669,18.555,34.180,30.762,14.648,19.531
1621558103.673,17.090,33.691,28.809,13.672,14.648
1621558103.677,17.090,32.715,27.832,15.137,105.469
1621558103.681,17.578,33.691,28.320,14.160,104.004
1621558103.685,18.555,32.715,29.785,18.066,41.016
1621558103.689,22.461,29.297,33.203,27.832,1.953
1621558103.692,29.297,29.297,36.133,31.250,-16.602
1621558103.696,36.621,33.203,37.109,32.715,40.527
1621558103.700,41.504,34.668,38.574,37.598,23.926
1621558103.704,42.969,30.762,38.574,45.410,0.000
1621558103.708,48.340,32.715,38.086,46.875,19.531
1621558103.739,51.270,36.621,35.645,39.551,50.293
1621558103.743,46.875,33.691,34.180,35.645,20.020
1621558103.747,41.016,32.227,35.156,34.180,-37.109
1621558103.751,36.133,34.180,36.621,30.273,-25.391
1621558103.755,31.738,34.180,36.133,29.297,-13.184
1621558103.759,24.902,33.203,34.668,26.367,14.648
1621558103.763,20.996,28.809,34.668,25.879,31.738
1621558103.766,20.996,26.855,33.691,29.297,32.227
1621558103.770,20.020,30.273,32.715,27.832,-13.184
1621558103.774,20.508,31.250,33.691,27.344,-25.391
1621558103.778,27.832,31.738,32.715,30.273,41.504
1621558103.782,32.715,32.227,31.250,29.785,46.387
1621558103.758,30.762,31.738,31.738,26.367,10.254
1621558103.762,28.809,30.762,30.762,22.949,45.898
1621558103.766,27.344,30.273,29.297,20.996,32.227
1621558103.770,27.832,30.762,29.785,22.949,-25.391
1621558103.774,30.273,29.785,32.715,18.555,24.414
1621558103.778,27.832,29.297,34.668,15.625,46.387
1621558103.782,21.484,26.855,33.203,19.043,-31.738
1621558103.785,21.484,27.344,30.273,19.531,-9.277
1621558103.789,22.949,28.320,28.320,16.602,72.754
1621558103.793,17.578,27.832,27.832,16.602,35.645
1621558103.797,19.043,30.273,25.879,18.555,-52.734
1621558103.801,25.879,33.203,23.438,19.531,-3.418
1621558103.815,26.367,30.762,21.484,19.043,28.320
1621558103.819,28.809,29.297,22.461,25.391,-21.973
1621558103.823,30.762,30.762,24.902,31.250,7.324
1621558103.827,34.668,29.785,24.902,32.227,31.738
1621558103.831,33.691,31.250,26.367,38.574,109.375
1621558103.835,34.668,30.273,29.297,42.969,116.699
1621558103.839,33.691,29.785,31.738,39.062,42.969
1621558103.842,28.320,29.785,31.738,38.574,28.320
1621558103.846,31.250,27.344,30.762,45.898,9.766
1621558103.850,30.762,28.809,29.297,41.992,37.109
1621558103.854,22.461,31.250,28.320,31.250,65.918
1621558103.858,20.996,31.250,27.832,26.367,24.414
1621558103.851,19.043,31.738,26.855,19.531,23.926
1621558103.855,12.695,30.762,23.926,17.090,12.207
1621558103.859,9.277,29.297,25.879,13.672,10.254
1621558103.863,11.719,29.785,30.762,11.719,54.199
1621558103.867,20.508,30.762,32.715,19.043,13.184
1621558103.871,23.926,29.297,30.273,23.438,36.133
1621558103.875,22.949,29.297,29.297,19.531,46.387
1621558103.878,26.367,30.273,31.250,19.043,-23.926
1621558103.882,34.180,30.273,32.227,21.973,21.973
1621558103.886,37.109,33.203,32.227,24.414,64.941
1621558103.890,34.180,37.598,28.809,26.367,87.891
1621558103.894,33.203,35.156,26.855,20.996,48.828
1621558103.907,29.297,30.762,27.344,18.555,-23.926
1621558103.911,29.297,30.762,26.367,20.996,14.648
1621558103.915,28.809,28.809,27.832,24.414,20.020
1621558103.919,24.414,31.250,31.250,24.414,-5.371
1621558103.923,26.855,31.738,30.273,26.367,54.199
1621558103.927,28.320,28.809,30.273,29.297,31.738
1621558103.931,31.738,26.855,33.203,30.762,-8.301
1621558103.934,28.809,26.367,32.227,28.320,24.902
1621558103.938,18.555,28.809,31.738,28.320,17.578
1621558103.942,19.043,31.738,30.762,27.344,23.438
1621558103.946,28.809,31.738,28.320,26.367,49.805
1621558103.950,29.785,31.250,28.809,27.344,53.711
1621558103.945,24.902,31.250,29.297,22.949,106.445
1621558103.949,32.227,30.762,31.738,23.438,63.965
1621558103.953,37.598,29.785,31.250,30.762,37.598
1621558103.957,34.180,27.344,28.320,29.785,88.867
1621558103.961,32.715,27.344,28.809,26.367,36.133
1621558103.965,34.668,29.297,30.273,27.832,14.160
1621558103.969,35.156,25.879,29.785,30.273,38.574
1621558103.972,28.809,25.391,29.785,27.344,90.820
1621558103.976,26.855,27.832,29.785,25.391,108.887
1621558103.980,29.297,28.320,31.738,23.926,1.465
1621558103.984,25.391,29.785,28.320,14.160,-35.645
1621558103.988,28.809,30.762,23.926,12.695,54.199
1621558104.001,25.391,29.297,24.414,10.742,82.520
1621558104.005,20.020,30.273,25.879,9.766,-13.672
1621558104.009,22.461,31.250,25.391,16.113,-41.992
1621558104.013,27.832,28.809,22.461,20.996,52.246
1621558104.017,33.203,27.344,22.461,24.414,56.641
1621558104.021,29.297,27.344,25.879,26.855,50.781
1621558104.025,24.902,29.297,26.367,28.809,36.621
1621558104.028,25.391,27.344,26.367,32.227,12.207
1621558104.032,25.879,24.902,26.855,33.691,56.641
1621558104.036,20.996,27.832,28.320,28.809,-2.441
1621558104.040,19.043,27.344,29.785,22.461,-52.246
1621558104.044,23.926,26.367,30.762,22.461,-6.836
1621558104.039,22.949,25.879,32.715,20.508,18.066
1621558104.043,23.926,26.855,33.203,17.578,10.742
1621558104.047,27.832,28.320,32.715,18.555,13.184
1621558104.051,28.809,28.809,32.227,21.973,0.488
1621558104.055,30.273,25.391,31.250,23.438,-30.762
1621558104.059,28.320,22.461,32.227,20.996,-21.973
1621558104.063,28.320,24.414,33.203,19.531,12.695
1621558104.066,28.809,24.902,32.715,19.531,43.945
1621558104.070,33.203,25.391,35.645,23.438,96.680
1621558104.074,35.156,24.414,37.598,26.855,55.176
1621558104.078,29.785,23.926,35.645,21.973,83.008
1621558104.082,34.668,28.320,36.621,24.902,109.863
1621558104.095,38.086,31.250,38.086,28.809,49.805
1621558104.099,37.109,32.227,34.668,26.855,24.902
1621558104.103,35.645,30.762,35.156,25.879,-13.184
1621558104.107,32.715,31.738,36.133,27.832,20.508
1621558104.111,38.086,33.691,35.645,36.133,34.180
1621558104.115,44.922,30.762,34.180,42.480,19.043
1621558104.119,44.434,31.738,32.715,42.969,20.020
1621558104.122,40.527,37.109,31.738,40.527,-3.906
1621558104.126,36.621,35.645,31.250,41.992,15.625
1621558104.130,34.180,32.227,30.273,44.434,20.020
1621558104.134,34.180,33.203,30.273,42.480,-8.301
1621558104.138,34.668,32.715,31.738,37.109,-5.859
1621558104.132,30.762,33.203,30.273,29.785,-32.715
1621558104.136,24.902,31.738,29.785,29.297,-40.527
1621558104.140,23.438,29.297,30.762,26.367,22.949
1621558104.144,25.391,30.762,33.691,21.484,52.246
1621558104.148,23.438,29.785,30.762,17.090,32.227
1621558104.152,19.531,26.367,25.391,16.113,41.504
1621558104.156,19.531,23.438,28.320,18.555,40.039
1621558104.159,19.043,22.949,29.297,14.648,22.949
1621558104.163,16.602,25.879,32.715,14.160,90.332
1621558104.167,18.066,28.320,38.086,15.625,64.453
1621558104.171,21.484,29.785,34.668,13.672,-2.441
1621558104.175,19.043,34.180,32.715,12.695,7.324
1621558104.188,24.902,32.715,32.715,16.113,0.000
1621558104.192,36.621,31.738,31.738,25.391,23.438
1621558104.196,37.109,33.203,32.715,28.320,39.062
1621558104.200,32.227,35.645,28.320,23.926,28.320
1621558104.204,36.621,33.691,28.809,23.926,25.391
1621558104.208,41.504,31.738,31.250,32.715,64.453
1621558104.212,43.457,30.762,34.180,41.016,78.613
1621558104.215,43.945,28.320,35.156,40.039,35.645
1621558104.219,41.504,30.273,31.250,34.180,-8.789
1621558104.223,39.551,31.738,30.762,32.715,32.227
1621558104.227,40.527,33.691,32.715,36.133,38.086
1621558104.231,41.992,33.203,34.180,35.645,3.418
1621558104.227,39.062,34.180,33.691,28.320,13.184
1621558104.231,35.645,32.715,35.156,28.320,23.438
1621558104.235,34.180,30.273,39.062,35.645,63.477
1621558104.239,32.715,31.738,38.574,39.551,19.043
1621558104.243,29.297,30.273,36.133,36.133,-26.367
1621558104.247,24.902,33.203,36.133,22.461,15.625
1621558104.251,27.832,37.598,38.086,22.461,4.883
1621558104.254,29.297,36.621,39.062,28.320,-22.949
1621558104.258,27.832,37.109,37.598,24.902,41.992
1621558104.262,28.809,39.062,37.598,25.391,38.574
1621558104.266,29.297,39.062,35.645,25.879,-0.488
1621558104.270,32.227,35.645,33.691,25.391,50.781
1621558104.283,38.086,35.645,34.180,27.344,110.840
1621558104.287,38.574,36.621,34.180,25.391,66.406
1621558104.291,35.645,36.133,32.715,27.832,20.508
1621558104.295,39.551,37.598,34.180,32.715,13.184
1621558104.299,41.016,30.273,33.691,33.691,-0.488
1621558104.303,40.527,26.855,35.156,31.738,22.949
1621558104.307,36.621,30.762,39.062,29.785,65.430
1621558104.310,49.316,30.762,39.062,41.504,68.848
1621558104.314,58.594,30.762,38.086,51.270,27.344
1621558104.318,42.969,29.785,36.621,38.574,16.113
1621558104.322,38.574,27.832,38.574,32.227,30.762
1621558104.326,41.504,30.762,39.062,29.785,2.441
1621558104.320,47.363,35.645,35.645,31.250,30.762
1621558104.324,50.781,37.109,34.180,32.715,7.812
1621558104.328,47.363,36.133,32.227,29.785,-51.758
1621558104.332,38.086,37.598,31.738,33.203,-13.672
1621558104.336,31.738,35.645,30.762,31.738,-21.973
1621558104.340,33.691,32.227,27.344,27.832,-35.156
1621558104.344,29.297,33.691,27.832,21.484,8.789
1621558104.347,29.297,31.250,29.785,23.438,67.871
1621558104.351,31.250,29.297,28.809,32.227,76.172
1621558104.355,28.320,31.250,29.785,36.133,17.090
1621558104.359,24.902,27.832,32.227,34.668,0.488
1621558104.363,21.484,24.902,29.785,32.715,-2.441
1621558104.376,17.090,26.367,27.832,28.809,13.672
1621558104.380,17.578,27.832,32.227,29.785,34.180
1621558104.384,18.066,29.297,35.156,30.762,42.480
1621558104.388,13.184,31.738,32.715,26.855,91.309
1621558104.392,18.066,32.715,32.227,29.297,64.453
1621558104.396,28.320,32.227,31.738,32.715,-1.465
1621558104.400,36.133,32.227,32.227,32.715,-3.418
1621558104.403,37.598,32.227,34.180,30.273,28.809
1621558104.407,33.203,32.227,33.203,28.809,73.242
1621558104.411,38.574,32.227,34.180,36.133,86.426
1621558104.415,46.875,32.227,33.691,39.551,76.172
1621558104.419,50.293,31.738,32.227,38.086,97.656
1621558104.432,55.176,32.227,33.203,36.621,31.738
1621558104.436,56.641,33.203,30.273,36.621,-19.531
1621558104.440,59.570,36.133,26.855,41.016,0.000
1621558104.444,57.129,35.645,26.367,36.133,45.410
1621558104.448,44.434,37.109,25.391,26.367,52.734
1621558104.452,40.527,40.039,25.879,26.367,3.906
1621558104.456,42.969,38.086,29.785,31.250,64.453
1621558104.459,41.992,34.180,31.738,32.227,87.891
1621558104.463,36.621,32.715,32.227,31.250,35.156
1621558104.467,34.180,32.227,31.738,31.250,13.184
1621558104.471,36.621,33.203,29.785,27.832,0.977
1621558104.475,36.133,29.785,25.879,26.855,5.859
1621558104.470,29.785,25.391,25.879,23.438,23.438
1621558104.474,17.090,21.973,26.367,23.438,33.203
1621558104.478,15.137,23.438,24.902,29.297,17.090
1621558104.482,25.391,26.367,27.832,31.738,45.898
1621558104.486,28.320,25.391,30.273,30.273,72.266
1621558104.490,24.902,22.949,32.227,32.715,80.078
1621558104.494,22.461,22.949,31.738,31.250,57.129
1621558104.497,24.414,25.391,29.785,26.855,15.625
1621558104.501,24.414,27.832,30.273,25.391,17.578
1621558104.505,27.832,26.855,32.715,29.297,40.527
1621558104.509,28.809,28.320,35.156,30.762,33.203
1621558104.513,33.203,29.785,34.668,35.156,52.246
1621558104.508,39.062,27.832,34.180,37.109,85.938
1621558104.512,34.180,27.344,31.250,31.738,71.289
1621558104.516,29.297,26.855,31.250,31.738,68.359
1621558104.520,31.250,25.879,31.250,29.297,100.098
1621558104.524,32.227,28.320,29.785,23.926,62.012
1621558104.528,33.203,34.180,29.297,19.531,-4.883
1621558104.532,34.180,36.133,27.832,15.625,-20.020
1621558104.535,34.180,38.086,27.344,15.137,-22.949
1621558104.539,33.203,37.109,27.832,20.508,1.953
1621558104.543,31.738,36.133,28.320,21.973,4.883
1621558104.547,31.738,37.109,28.320,22.461,8.301
1621558104.551,31.738,34.668,27.832,33.203,21.484
1621558104.564,31.738,30.762,28.320,36.133,-57.129
1621558104.568,34.180,29.785,32.227,37.109,-36.133
1621558104.572,40.039,33.203,31.250,39.062,39.062
1621558104.576,32.227,32.715,27.344,36.621,15.625
1621558104.580,30.762,29.785,26.367,36.133,41.016
1621558104.584,41.992,26.855,23.438,34.180,12.695
1621558104.588,41.504,30.762,24.414,28.320,1.465
1621558104.591,40.039,37.109,29.297,25.879,8.301
1621558104.595,39.551,34.180,28.809,32.227,-47.363
1621558104.599,44.922,33.691,28.809,38.574,-12.695
1621558104.603,41.504,36.133,25.879,32.715,22.461
1621558104.607,33.203,37.109,22.461,28.320,37.109
1621558104.601,26.855,39.062,23.438,27.832,47.852
1621558104.605,22.949,38.086,27.832,25.879,48.828
1621558104.609,23.438,35.156,29.785,29.297,44.922
1621558104.613,20.508,32.715,27.344,33.691,21.484
1621558104.617,22.461,31.738,25.879,36.133,12.207
1621558104.621,22.949,31.250,29.297,40.527,19.043
1621558104.625,25.391,30.273,32.227,40.039,28.809
1621558104.628,28.320,30.273,30.762,31.250,58.105
1621558104.632,30.762,30.273,33.203,29.297,88.867
1621558104.636,35.156,30.273,34.180,28.320,53.711
1621558104.640,31.738,31.738,31.738,20.508,21.973
1621558104.644,28.320,32.227,31.250,22.949,-4.395
1621558104.657,26.855,32.715,34.668,28.809,-5.371
1621558104.661,27.344,34.668,33.203,24.902,-21.484
1621558104.665,33.203,35.156,30.762,23.438,-33.691
1621558104.669,35.156,36.621,33.203,27.832,-29.785
1621558104.673,32.715,35.156,33.203,22.949,-80.078
1621558104.677,34.180,33.203,30.762,22.949,-56.641
1621558104.681,36.133,34.180,31.738,31.738,3.906
1621558104.684,35.645,33.691,33.203,27.344,42.969
1621558104.688,39.551,36.133,32.715,23.926,12.207
1621558104.692,41.016,38.574,33.203,30.273,-12.207
1621558104.696,41.504,36.621,34.180,41.016,42.480
1621558104.700,42.969,34.668,34.668,42.480,27.344
1621558104.695,42.969,33.203,34.668,40.039,24.414
1621558104.699,45.410,32.227,34.668,42.480,73.242
1621558104.703,41.992,30.762,34.180,44.434,73.730
1621558104.707,36.621,30.273,32.715,41.992,49.805
1621558104.711,32.227,30.762,31.250,37.109,53.711
1621558104.715,28.320,31.738,31.738,39.551,14.160
1621558104.719,28.320,30.762,31.738,42.480,-12.207
1621558104.722,30.273,30.273,32.715,42.969,20.020
1621558104.726,30.762,31.738,32.715,41.504,32.227
1621558104.730,26.367,30.762,31.250,37.598,57.129
1621558104.734,18.066,31.250,32.715,34.180,48.828
1621558104.738,16.602,31.250,33.691,27.832,28.809
1621558104.751,22.949,30.762,35.156,26.855,48.828
1621558104.755,20.020,28.809,34.180,22.461,44.434
1621558104.759,22.949,28.809,32.715,17.090,10.254
1621558104.763,39.551,32.227,33.691,26.855,-6.836
1621558104.767,43.945,30.273,34.180,36.621,40.039
1621558104.771,41.992,30.273,36.133,45.410,66.406
1621558104.775,44.434,35.156,39.062,54.199,42.480
1621558104.778,42.969,34.180,38.086,60.059,38.574
1621558104.782,41.504,33.691,38.086,65.918,41.016
1621558104.786,29.785,30.762,34.668,64.941,24.414
1621558104.790,22.949,31.250,30.762,65.430,20.020
1621558104.794,33.203,32.715,33.691,75.684,12.695
1621558104.790,36.621,32.227,33.203,82.031,20.020
1621558104.794,40.039,32.227,30.273,81.055,26.855
1621558104.798,40.527,28.809,30.273,87.402,-11.719
1621558104.802,34.668,28.320,33.203,98.633,10.254
1621558104.806,38.574,29.297,34.668,104.492,35.645
1621558104.810,37.109,29.297,34.668,105.469,63.477
1621558104.814,35.645,30.273,33.691,104.980,75.195
1621558104.817,37.109,26.855,30.762,106.445,16.602
1621558104.821,33.203,29.297,28.320,106.445,12.695
1621558104.825,30.762,31.250,27.344,104.980,30.273
1621558104.829,25.391,31.250,25.879,100.098,-20.996
1621558104.833,19.043,29.297,25.391,94.727,-6.836
1621558104.845,21.484,27.344,26.367,96.191,26.367
1621558104.849,27.344,31.250,26.367,99.121,27.344
1621558104.853,29.297,32.715,27.832,95.215,8.301
1621558104.857,34.668,31.738,27.832,94.727,39.062
1621558104.861,39.551,32.227,27.344,100.586,25.391
1621558104.865,36.133,32.227,28.809,101.562,1.465
1621558104.869,37.598,31.738,30.273,98.145,-1.465
1621558104.872,37.598,31.250,28.809,91.797,-12.695
1621558104.876,34.180,30.273,26.855,95.215,15.137
1621558104.880,37.109,27.832,28.320,100.586,17.578
1621558104.884,42.480,31.250,29.297,104.004,-30.762
1621558104.888,41.016,34.180,29.297,104.492,-2.930
1621558104.882,41.016,35.645,33.691,103.516,42.480
1621558104.886,43.457,34.180,29.785,101.562,44.922
1621558104.890,41.504,31.250,26.855,99.609,103.027
1621558104.894,37.109,33.203,31.250,97.656,92.285
1621558104.898,34.180,31.738,30.273,91.309,38.086
1621558104.902,32.227,30.762,28.809,88.379,50.293
1621558104.906,33.203,32.715,29.785,93.262,17.090
1621558104.909,32.715,31.250,33.203,93.750,39.062
1621558104.913,35.645,31.250,34.668,92.773,40.039
1621558104.917,39.551,34.180,35.645,91.309,26.367
1621558104.921,34.180,33.203,35.156,89.355,34.180
1621558104.925,28.809,29.297,32.227,88.867,19.043
1621558104.939,29.297,26.367,35.156,83.496,11.230
1621558104.943,28.809,25.391,37.598,81.055,-18.066
1621558104.947,24.902,29.297,36.133,80.078,-35.156
1621558104.951,25.879,30.273,37.109,73.242,26.367
1621558104.955,24.902,27.344,37.109,67.383,43.945
1621558104.959,21.973,26.855,34.180,63.965,9.766
1621558104.963,24.414,28.809,31.738,61.035,21.973
1621558104.966,26.855,30.273,30.273,61.035,6.348
1621558104.970,27.832,29.785,32.715,65.430,-21.484
1621558104.974,28.809,29.785,36.621,65.430,41.016
1621558104.978,33.203,28.809,34.668,68.359,94.238
1621558104.982,36.621,27.344,34.668,66.895,67.383
1621558104.976,40.039,28.320,34.180,54.688,25.879
1621558104.980,38.086,28.809,31.738,35.645,33.203
1621558104.984,36.621,27.832,31.738,23.438,35.156
1621558104.988,38.574,28.809,28.809,15.137,59.570
1621558104.992,35.645,30.273,30.273,7.324,94.727
1621558104.996,35.645,29.785,33.203,5.371,39.062
1621558105.000,37.598,32.227,32.227,5.371,10.742
1621558105.003,40.527,32.227,32.227,4.395,36.133
1621558105.007,42.969,27.832,29.785,3.418,42.480
1621558105.011,45.410,25.391,29.297,-1.953,-8.789
1621558105.015,46.875,24.414,31.738,-3.418,-42.480
1621558105.019,44.922,26.855,30.762,0.000,-1.465
1621558105.032,43.945,28.320,30.762,-5.859,49.316
1621558105.036,42.969,27.344,31.738,-11.230,47.363
1621558105.040,40.039,25.391,32.227,-7.812,30.762
1621558105.044,41.504,26.367,33.203,-11.230,0.488
1621558105.048,42.480,27.344,34.180,-16.602,20.996
1621558105.052,36.133,25.879,35.156,-22.949,48.828
1621558105.056,29.785,23.926,35.645,-30.273,-44.922
1621558105.059,27.832,24.414,35.645,-33.203,-42.969
1621558105.063,31.250,26.855,34.668,-25.391,52.246
1621558105.067,34.668,24.902,32.227,-22.949,63.965
1621558105.071,32.715,25.391,30.762,-23.926,27.344
1621558105.075,31.250,29.785,29.785,-20.996,9.766
1621558105.071,33.203,29.785,30.273,-17.578,-36.621
1621558105.075,36.133,26.855,27.832,-20.996,9.277
1621558105.079,35.645,26.855,24.902,-25.879,58.594
1621558105.083,35.645,27.344,27.344,-22.949,43.945
1621558105.087,37.109,29.297,28.809,-20.996,53.711
1621558105.091,35.645,32.715,28.809,-22.949,32.227
1621558105.095,31.250,30.273,27.344,-27.344,18.066
1621558105.098,23.926,29.785,21.973,-31.738,18.555
1621558105.102,20.996,32.715,19.043,-28.809,40.039
1621558105.106,23.438,30.762,20.508,-21.973,32.715
1621558105.110,22.949,31.738,19.531,-25.391,58.594
1621558105.114,29.297,31.250,21.973,-25.391,130.371
1621558105.127,37.109,28.809,25.879,-14.648,124.023
1621558105.131,41.504,29.297,28.809,-2.441,64.941
1621558105.135,35.645,28.320,29.297,-5.371,26.855
1621558105.139,30.273,24.902,27.832,-13.672,63.965
1621558105.143,33.691,24.414,28.320,-11.230,61.035
1621558105.147,25.879,26.367,30.762,-13.672,2.441
1621558105.151,22.461,25.879,32.715,-13.184,-28.809
1621558105.154,21.484,25.879,32.715,-12.695,59.082
1621558105.158,19.531,25.879,31.250,-13.672,84.473
1621558105.162,25.391,24.414,29.297,-8.301,7.324
1621558105.166,29.297,25.391,28.809,-5.371,14.160
1621558105.170,28.320,24.902,27.832,-5.859,29.785
1621558105.165,27.832,27.344,27.832,-5.859,24.902
1621558105.169,24.902,24.902,28.809,-3.906,34.180
1621558105.173,29.297,22.461,28.320,2.441,46.875
1621558105.177,37.109,24.414,31.738,5.859,41.016
1621558105.181,31.738,23.438,34.668,2.930,11.230
1621558105.185,26.367,23.926,30.273,1.953,67.383
1621558105.189,26.367,24.902,29.297,4.883,74.219
1621558105.192,24.414,23.926,30.273,3.906,-6.348
1621558105.196,26.367,25.879,30.762,0.977,-12.695
1621558105.200,27.832,27.344,34.668,5.371,2.441
1621558105.204,28.809,31.250,33.691,8.789,69.824
1621558105.208,30.762,31.738,30.762,10.742,70.312
1621558105.220,31.738,32.227,31.250,14.160,-26.367
1621558105.224,35.156,33.691,30.762,14.160,13.184
1621558105.228,32.715,29.297,28.809,16.113,47.852
1621558105.232,33.691,29.297,26.367,18.066,8.789
1621558105.236,32.227,31.738,28.320,15.137,19.531
1621558105.240,27.832,29.297,31.738,13.672,13.672
1621558105.244,27.832,26.855,31.738,15.625,12.207
1621558105.247,28.320,26.855,30.762,15.625,23.926
1621558105.251,27.832,27.832,33.691,13.184,66.895
1621558105.255,30.762,27.832,32.227,11.719,54.688
1621558105.259,32.227,29.785,28.809,10.742,22.949
1621558105.263,24.414,29.297,29.785,7.812,28.809
1621558105.257,27.344,29.785,30.762,11.719,39.062
1621558105.261,29.785,32.227,33.203,11.719,-15.137
1621558105.265,30.273,33.203,35.156,7.324,7.812
1621558105.269,33.203,30.273,35.645,13.672,57.129
1621558105.273,33.203,27.344,37.109,19.531,-22.461
1621558105.277,34.180,30.273,36.133,14.648,19.043
1621558105.281,27.832,31.738,33.691,13.672,18.066
1621558105.284,29.297,29.297,34.668,21.484,-19.043
1621558105.288,32.227,29.297,36.621,26.855,43.945
1621558105.292,28.320,29.785,38.574,25.879,39.062
1621558105.296,27.344,28.809,37.598,20.020,41.016
1621558105.300,25.879,26.367,35.156,21.973,99.609
1621558105.314,25.879,29.297,34.668,24.414,80.078
1621558105.318,27.832,32.715,33.691,19.531,28.320
1621558105.322,31.738,31.738,35.156,16.602,74.707
1621558105.326,33.203,33.203,33.691,14.160,63.965
1621558105.330,33.691,33.691,34.180,18.066,-46.875
1621558105.334,29.785,32.227,37.109,18.555,-0.488
1621558105.338,28.809,30.273,34.668,16.602,23.926
1621558105.341,31.250,29.785,31.738,14.160,-17.578
1621558105.345,29.297,29.785,30.762,17.578,43.945
1621558105.349,33.203,25.391,29.297,22.461,54.688
1621558105.353,34.668,25.391,28.809,20.508,14.160
1621558105.357,31.738,27.344,30.273,20.508,-12.207
1621558105.352,29.297,24.414,30.762,20.996,8.301
1621558105.356,27.832,24.902,32.227,21.484,14.160
1621558105.360,27.344,27.832,35.156,23.438,-4.395
1621558105.364,27.832,26.367,35.645,23.926,3.906
1621558105.368,27.344,26.855,35.645,25.391,27.344
1621558105.372,27.344,29.785,37.598,29.297,11.230
1621558105.376,27.344,25.391,35.645,27.832,12.695
1621558105.379,24.902,24.414,33.203,25.879,13.672
1621558105.383,21.484,24.902,31.738,25.391,37.109
1621558105.387,20.996,24.902,31.738,21.973,29.297
1621558105.391,28.809,30.762,35.156,18.066,4.395
1621558105.395,30.273,30.762,34.180,15.625,5.859
1621558105.408,23.438,27.344,32.227,13.184,35.645
1621558105.412,25.391,27.344,31.738,16.113,62.500
1621558105.416,29.785,30.273,33.691,20.508,-2.441
1621558105.420,34.180,32.227,33.691,17.090,-13.672
1621558105.424,38.086,33.203,33.691,18.555,41.016
1621558105.428,40.527,31.250,31.250,18.555,2.930
1621558105.432,42.480,32.227,28.320,19.043,11.719
1621558105.435,37.598,35.645,27.832,19.531,50.293
1621558105.439,32.227,33.203,27.344,19.531,65.918
1621558105.443,33.203,32.715,28.320,24.414,40.527
1621558105.447,36.621,33.691,28.809,28.809,-16.602
1621558105.451,37.598,33.691,25.391,28.320,32.715
1621558105.445,34.668,33.691,27.344,23.926,47.363
1621558105.449,30.762,28.809,33.203,23.438,20.020
1621558105.453,28.320,28.320,33.691,26.367,42.480
1621558105.457,29.297,34.180,33.203,29.785,70.312
1621558105.461,30.273,34.668,36.133,30.762,60.059
1621558105.465,35.645,32.715,38.574,33.203,36.621
1621558105.469,32.227,33.691,37.109,34.668,14.160
1621558105.472,28.809,32.227,38.086,34.180,4.883
1621558105.476,26.855,32.227,38.086,29.785,-8.301
1621558105.480,20.020,33.203,37.598,26.367,26.367
1621558105.484,21.484,33.691,38.086,29.297,51.270
1621558105.488,27.344,34.668,37.598,26.367,44.922
1621558105.501,27.832,32.227,39.551,18.555,87.891
1621558105.505,33.203,32.715,37.598,18.066,92.285
1621558105.509,38.574,33.203,33.691,20.996,94.238
1621558105.513,31.250,28.320,35.645,14.648,5.859
1621558105.517,25.879,25.391,36.621,9.277,-17.090
1621558105.521,23.926,20.996,36.621,5.859,55.176
1621558105.525,22.461,23.438,36.133,0.977,72.266
1621558105.528,20.508,28.809,33.691,1.465,-1.465
1621558105.532,21.484,27.344,32.227,-0.977,-24.414
1621558105.536,20.996,27.832,31.738,1.953,5.859
1621558105.540,17.090,24.902,30.762,8.301,-25.879
1621558105.544,28.320,21.484,30.762,21.484,-17.090
1621558105.539,36.621,23.438,29.297,32.715,57.129
1621558105.543,32.227,25.391,30.762,33.203,-0.977
1621558105.547,34.668,25.879,33.203,36.621,-21.973
1621558105.551,38.574,26.855,35.156,40.527,1.465
1621558105.555,38.086,26.855,35.645,42.480,-12.207
1621558105.559,37.598,27.832,35.645,43.457,-45.410
1621558105.563,36.621,29.297,34.180,42.969,-2.441
1621558105.566,34.180,30.762,32.715,43.457,63.965
1621558105.570,33.691,30.762,31.738,46.387,45.410
1621558105.574,35.645,29.785,30.762,44.922,-11.230
1621558105.578,33.691,32.227,30.273,39.062,-68.848
1621558105.582,33.203,31.738,29.785,37.109,-2.441
1621558105.595,38.574,27.344,31.738,41.016,32.715
1621558105.599,34.180,30.273,32.715,37.109,53.223
1621558105.603,31.250,31.250,32.715,32.715,59.082
1621558105.607,33.691,30.273,32.715,30.762,68.359
1621558105.611,33.203,31.738,29.785,26.367,41.504
1621558105.615,37.109,30.762,33.203,28.320,-22.949
1621558105.619,39.551,28.809,36.621,26.855,-11.719
1621558105.622,37.109,30.762,34.668,12.695,17.090
1621558105.626,38.086,33.691,30.762,3.418,33.203
1621558105.630,45.410,36.133,30.762,12.695,25.391
1621558105.634,47.363,38.574,31.738,14.648,28.809
1621558105.638,41.016,33.203,31.250,16.602,90.332
1621558105.633,41.016,33.203,34.668,24.902,103.516
1621558105.637,46.875,37.598,36.621,31.738,1.953
1621558105.641,44.922,34.668,33.691,34.180,-22.949
1621558105.645,35.645,31.738,30.273,27.344,59.570
1621558105.649,32.715,33.691,31.738,24.902,59.082
1621558105.653,33.203,34.180,31.250,29.297,20.020
1621558105.657,31.738,34.180,27.344,27.344,14.160
1621558105.660,26.367,34.180,30.273,23.438,-18.066
1621558105.664,24.902,32.715,30.762,24.414,21.484
1621558105.668,27.344,31.738,27.832,31.738,58.594
1621558105.672,27.832,32.227,31.738,39.551,31.250
1621558105.676,33.691,33.691,33.691,42.969,38.086
1621558105.690,37.109,33.691,33.203,42.480,15.625
1621558105.694,35.156,32.227,33.691,43.457,-38.574
1621558105.698,42.969,29.297,34.668,47.363,-0.488
1621558105.702,43.945,31.250,35.645,42.480,17.578
1621558105.706,34.668,33.203,34.180,35.156,25.391
1621558105.710,33.203,33.203,34.180,34.180,35.645
1621558105.714,33.691,31.738,31.738,31.738,7.812
1621558105.717,31.250,30.273,29.785,26.855,-30.273
1621558105.721,32.715,29.785,32.227,24.902,-3.418
1621558105.725,36.133,27.832,32.715,22.949,-14.160
1621558105.729,37.109,28.320,31.738,22.949,-25.391
1621558105.733,34.668,28.320,32.715,17.578,22.461
1621558105.726,34.668,29.785,35.156,9.277,44.434
1621558105.730,33.691,33.203,35.645,5.859,14.648
1621558105.734,34.668,30.273,36.133,9.766,35.156
1621558105.738,30.273,26.855,37.109,19.043,88.867
1621558105.742,26.855,29.297,35.156,19.043,43.457
1621558105.746,31.250,30.273,36.621,17.090,27.832
1621558105.750,28.320,30.273,39.062,20.996,30.762
1621558105.753,28.320,31.250,38.086,25.879,24.414
1621558105.757,27.344,29.785,39.062,28.809,2.930
1621558105.761,24.902,27.832,41.016,33.691,-13.672
1621558105.765,27.832,28.320,44.434,40.527,-9.277
1621558105.769,27.344,26.367,46.875,44.434,33.691
1621558105.782,26.367,26.367,46.875,47.852,60.547
1621558105.786,33.203,27.832,46.387,48.340,48.828
1621558105.790,37.598,27.344,43.945,44.434,-6.348
1621558105.794,29.297,28.320,40.527,42.480,-21.973
1621558105.798,25.391,27.344,41.504,43.945,-8.789
1621558105.802,35.156,26.367,45.898,44.434,-6.836
1621558105.806,32.715,30.273,46.387,37.109,-34.180
1621558105.809,29.785,31.738,42.969,33.691,-7.812
1621558105.813,35.645,28.809,41.504,34.668,36.133
1621558105.817,33.691,30.762,40.039,31.738,-16.602
1621558105.821,33.691,32.715,36.133,31.738,-11.719
1621558105.825,35.645,29.785,36.133,30.762,30.273
1621558105.822,36.621,27.344,38.574,26.855,22.461
1621558105.826,39.551,27.344,35.645,23.438,-2.930
1621558105.830,40.039,27.832,35.156,19.531,-42.480
1621558105.834,36.133,32.227,35.645,15.625,9.277
1621558105.838,38.086,30.273,37.109,18.066,70.312
1621558105.842,34.180,26.367,37.598,12.695,7.812
1621558105.846,30.273,27.344,34.668,1.465,24.902
1621558105.849,29.297,26.855,34.668,1.465,31.738
1621558105.853,31.738,28.809,31.738,6.348,15.625
1621558105.857,40.039,31.738,30.273,6.836,70.312
1621558105.861,39.062,33.203,34.180,9.277,58.594
1621558105.865,31.738,32.227,32.715,10.254,31.738
1621558105.876,29.785,30.273,30.273,15.625,47.363
1621558105.880,31.250,27.832,33.203,32.227,54.199
1621558105.884,32.715,27.832,34.668,38.574,65.918
1621558105.888,29.785,27.832,33.691,41.504,52.246
1621558105.892,30.273,25.879,35.645,53.223,9.277
1621558105.896,32.715,24.414,37.109,55.176,27.832
1621558105.900,34.668,24.414,38.574,48.828,45.898
1621558105.903,35.156,26.855,40.039,43.945,-44.434
1621558105.907,34.668,28.320,39.062,43.457,-4.395
1621558105.911,34.668,28.809,38.574,45.898,63.965
1621558105.915,35.156,30.273,36.621,46.387,14.160
1621558105.919,34.180,31.738,36.133,44.434,39.551
1621558105.915,31.250,29.785,37.109,42.480,66.406
1621558105.919,35.156,29.785,37.109,43.457,37.598
1621558105.923,40.527,32.715,34.668,44.922,19.043
1621558105.927,36.133,31.250,30.273,41.016,52.246
1621558105.931,33.203,30.273,29.297,31.250,35.156
1621558105.935,35.645,28.809,32.227,31.250,39.062
1621558105.939,34.668,29.297,31.250,35.645,90.820
1621558105.942,32.715,33.203,29.785,28.320,-2.441
1621558105.946,27.832,34.180,28.809,20.020,-4.395
1621558105.950,24.902,32.227,26.855,18.555,42.969
1621558105.954,25.391,30.273,29.297,18.555,37.109
1621558105.958,22.949,31.250,28.809,13.672,67.871
1621558105.971,20.508,31.738,25.391,7.324,34.180
1621558105.975,20.996,30.273,28.809,9.766,7.324
1621558105.979,25.879,28.809,31.738,12.695,3.418
1621558105.983,30.273,28.809,30.273,11.719,22.461
1621558105.987,30.762,29.785,31.738,13.184,3.418
1621558105.991,32.715,30.273,31.738,17.090,-3.418
1621558105.995,33.203,29.297,30.273,28.809,42.480
1621558105.998,33.203,30.762,31.738,36.133,49.316
1621558106.002,31.738,32.227,29.297,30.762,35.645
1621558106.006,29.785,33.203,25.879,31.738,24.902
1621558106.010,31.250,38.086,25.391,38.574,49.316
1621558106.014,38.086,41.016,27.832,46.875,71.777
1621558106.007,38.086,42.480,30.762,48.340,20.508
1621558106.011,31.250,43.945,31.738,38.086,1.465
1621558106.015,29.785,43.945,29.785,33.203,49.805
1621558106.019,32.715,44.434,30.273,34.180,23.926
1621558106.023,34.180,42.969,33.203,31.738,-16.602
1621558106.027,33.203,40.527,32.227,27.344,28.809
1621558106.031,33.691,43.457,28.809,26.367,103.027
1621558106.034,32.715,41.016,29.297,33.203,98.145
1621558106.038,34.668,39.551,29.785,36.621,42.969
1621558106.042,38.574,41.504,26.367,32.715,14.160
1621558106.046,35.645,40.039,24.902,27.832,16.602
1621558106.050,33.203,36.621,25.879,26.367,53.711
1621558106.064,34.180,34.668,23.438,24.902,53.223
1621558106.068,37.598,37.109,26.855,21.973,7.324
1621558106.072,32.227,36.621,32.227,18.066,43.457
1621558106.076,28.320,36.621,32.227,13.184,63.965
1621558106.080,30.273,35.645,28.809,10.742,25.391
1621558106.084,33.691,33.203,27.832,10.254,29.297
1621558106.088,31.250,31.250,27.344,9.277,24.902
1621558106.091,29.297,30.762,26.367,10.742,26.367
1621558106.095,32.715,32.715,26.367,18.066,0.000
1621558106.099,28.320,32.227,24.414,17.090,-3.906
1621558106.103,31.250,32.227,26.855,15.625,8.301
1621558106.107,29.785,34.668,28.809,20.996,0.977
1621558106.101,23.926,35.156,30.273,22.949,17.090
1621558106.105,26.367,33.691,31.738,25.391,2.930
1621558106.109,29.297,33.203,31.738,28.809,-30.273
1621558106.113,30.273,30.273,31.738,29.297,-3.906
1621558106.117,29.785,30.762,33.203,34.180,34.180
1621558106.121,27.344,35.645,31.738,38.086,52.246
1621558106.125,28.809,36.621,31.250,41.016,3.906
1621558106.128,29.785,36.133,31.250,38.574,25.879
1621558106.132,30.762,34.180,30.762,38.086,21.484
1621558106.136,31.250,31.738,32.227,41.016,-3.418
1621558106.140,29.785,31.250,33.691,39.062,40.527
1621558106.144,31.250,31.738,33.203,37.109,0.488
1621558106.157,29.297,33.691,32.227,35.156,28.809
1621558106.161,30.762,33.203,33.691,38.574,92.773
1621558106.165,38.086,31.738,34.180,43.457,32.715
1621558106.169,37.598,35.645,31.738,34.180,13.184
1621558106.173,34.668,37.109,28.320,27.832,64.941
1621558106.177,36.133,36.133,26.855,29.297,16.602
1621558106.181,35.156,35.645,24.902,24.902,-0.977
1621558106.184,34.668,36.133,23.438,20.020,32.715
1621558106.188,30.273,38.574,25.391,15.137,15.137
1621558106.192,24.414,37.109,28.320,15.137,-12.695
1621558106.196,23.926,32.715,27.344,12.695,18.066
1621558106.200,21.484,31.250,26.855,4.883,62.012
1621558106.196,19.531,34.180,29.297,-1.465,72.754
1621558106.200,20.508,30.762,29.297,-0.977,37.109
1621558106.204,23.438,29.297,29.785,10.254,64.453
1621558106.208,24.902,27.832,30.762,13.184,77.637
1621558106.212,23.926,22.949,29.297,9.277,4.883
1621558106.216,23.438,28.320,28.320,14.648,-54.688
1621558106.220,29.297,34.180,30.762,27.344,33.203
1621558106.223,28.809,31.738,30.273,30.273,75.684
1621558106.227,27.344,29.297,28.320,32.715,20.996
1621558106.231,28.320,32.227,29.785,41.016,10.742
1621558106.235,29.785,33.691,33.203,43.457,49.316
1621558106.239,33.203,31.250,33.203,41.992,45.898
1621558106.252,33.203,29.785,31.250,38.574,-8.789
1621558106.256,30.273,35.156,30.762,37.598,66.895
1621558106.260,30.273,33.691,32.227,38.574,53.711
1621558106.264,31.250,29.297,32.227,35.645,-13.672
1621558106.268,32.715,32.715,34.180,35.645,11.719
1621558106.272,33.203,31.738,34.180,39.551,-16.602
1621558106.276,31.250,31.250,33.203,41.992,-11.230
1621558106.279,35.156,29.785,34.180,43.945,39.062
1621558106.283,36.621,32.227,33.203,40.039,38.086
1621558106.287,32.227,32.715,30.762,31.738,-9.277
1621558106.291,32.715,28.809,30.273,32.715,32.715
1621558106.295,39.551,29.785,28.809,40.527,44.922
1621558106.289,38.574,30.273,26.855,39.551,9.277
1621558106.293,33.203,29.785,27.832,31.738,39.551
1621558106.297,33.691,31.250,29.297,29.297,22.461
1621558106.301,40.527,31.250,30.273,32.715,7.324
1621558106.305,34.180,27.832,29.785,22.949,-8.301
1621558106.309,28.809,30.273,28.809,13.184,-1.953
1621558106.313,32.227,33.203,31.250,11.719,33.691
1621558106.316,30.762,29.297,33.203,8.789,20.020
1621558106.320,30.273,30.273,32.227,11.230,80.078
1621558106.324,30.762,34.180,32.227,17.090,53.223
1621558106.328,27.832,36.621,33.203,18.066,-19.531
1621558106.332,28.809,35.645,35.156,24.414,-26.855
1621558106.345,30.762,35.156,35.156,33.203,21.484
1621558106.349,32.715,36.621,32.227,32.227,58.594
1621558106.353,34.668,33.203,31.738,30.273,23.926
1621558106.357,28.809,34.180,30.762,32.715,29.785
1621558106.361,28.809,33.691,29.297,35.156,8.301
1621558106.365,33.203,30.762,30.273,37.598,18.066
1621558106.369,31.738,30.273,33.203,41.016,47.852
1621558106.372,30.273,29.297,35.156,37.109,-6.836
1621558106.376,28.320,28.320,35.156,42.480,25.391
1621558106.380,29.297,27.832,36.621,51.270,72.754
1621558106.384,29.297,30.762,34.180,45.898,39.062
1621558106.388,27.832,30.762,32.715,45.898,13.184
1621558106.382,31.738,27.832,35.156,50.293,33.203
1621558106.386,32.715,25.391,32.227,47.852,19.043
1621558106.390,31.738,26.367,30.762,39.062,-34.668
1621558106.394,31.250,29.785,31.250,30.273,-30.762
1621558106.398,32.715,31.738,27.344,26.367,5.371
1621558106.402,39.062,33.203,25.879,26.855,21.484
1621558106.406,43.457,33.691,31.250,31.738,41.992
1621558106.409,41.016,36.133,32.227,30.273,42.969
1621558106.413,40.039,34.668,27.344,26.367,124.512
1621558106.417,42.480,31.250,26.855,28.809,72.266
1621558106.421,41.016,30.762,29.297,23.926,-20.020
1621558106.425,39.551,26.855,31.738,18.066,21.973
1621558106.439,33.691,23.926,33.691,13.672,66.895
1621558106.443,25.879,28.809,32.227,9.766,74.219
1621558106.447,26.855,31.738,31.738,8.301,-5.859
1621558106.451,24.414,31.738,32.715,8.301,-33.203
1621558106.455,23.926,35.156,29.297,9.766,-7.812
1621558106.459,31.738,36.133,25.391,16.602,-45.898
1621558106.463,22.949,33.691,28.320,22.949,-18.555
1621558106.466,5.859,30.762,32.227,18.555,47.852
1621558106.470,5.859,22.949,36.133,16.113,41.504
1621558106.474,11.719,17.090,38.086,24.902,30.762
1621558106.478,19.043,19.043,39.551,33.203,22.461
1621558106.482,22.461,20.020,41.016,34.668,16.113
1621558106.477,20.508,21.973,38.574,34.668,48.828
1621558106.481,19.531,25.391,36.621,34.668,33.691
1621558106.485,22.461,27.344,36.621,33.691,0.000
1621558106.489,29.297,29.297,35.156,38.086,48.340
1621558106.493,33.203,30.273,34.668,39.551,41.992
1621558106.497,38.574,25.391,33.691,39.062,4.883
1621558106.501,47.852,25.391,36.133,49.316,2.930
1621558106.504,48.828,32.715,36.621,51.758,38.574
1621558106.508,46.387,32.227,32.227,44.434,68.848
1621558106.512,48.828,31.738,31.738,38.574,34.668
1621558106.516,48.828,32.715,32.715,33.203,33.691
1621558106.520,46.875,28.809,31.250,37.598,7.812
1621558106.533,46.875,27.832,32.227,41.016,2.441
1621558106.537,42.969,33.691,32.227,33.691,39.062
1621558106.541,36.133,32.715,30.762,23.926,-0.488
1621558106.545,32.227,28.809,31.250,21.973,0.977
1621558106.549,26.367,27.832,30.762,25.879,43.457
1621558106.553,21.973,27.832,30.762,23.926,58.105
1621558106.557,20.996,27.832,31.250,18.555,37.598
1621558106.560,13.672,24.902,32.227,17.090,27.344
1621558106.564,10.742,23.926,32.715,22.461,40.039
1621558106.568,14.160,24.414,31.738,23.926,11.230
1621558106.572,17.090,23.438,30.762,25.879,-6.836
1621558106.576,23.438,25.879,34.668,32.227,-10.254
1621558106.570,27.832,29.785,32.227,33.203,0.000
1621558106.574,25.391,27.832,27.832,30.273,25.391
1621558106.578,27.832,27.344,30.762,31.250,83.008
1621558106.582,32.227,28.320,32.227,30.762,97.656
1621558106.586,40.039,29.785,32.715,36.133,62.012
1621558106.590,50.293,31.250,32.227,45.410,65.430
1621558106.594,56.641,32.227,31.738,44.434,79.590
1621558106.597,52.734,32.227,33.203,44.434,77.637
1621558106.601,45.898,33.203,33.203,48.828,27.344
1621558106.605,45.898,34.668,31.250,43.945,36.133
1621558106.609,42.969,31.250,29.785,36.133,75.195
1621558106.613,37.598,27.832,27.344,30.762,7.812
1621558106.626,33.203,30.273,26.367,31.738,27.832
1621558106.630,33.203,35.156,26.367,31.738,42.480
1621558106.634,31.250,37.109,24.902,23.926,11.230
1621558106.638,31.250,38.086,25.391,21.973,54.688
1621558106.642,31.738,36.133,27.832,22.949,15.625
1621558106.646,28.320,29.785,28.809,29.297,20.996
1621558106.650,28.809,28.320,30.273,28.320,38.574
1621558106.653,26.367,27.344,35.645,28.320,20.020
1621558106.657,24.902,30.273,40.527,28.320,-19.043
1621558106.661,24.414,31.250,40.039,26.855,-114.746
1621558106.665,10.742,29.297,37.109,20.996,-57.129
1621558106.669,0.488,30.762,32.715,8.301,32.715
1621558106.664,0.488,28.320,34.180,2.930,23.926
1621558106.668,3.906,24.902,34.180,4.395,60.059
1621558106.672,12.207,27.344,31.250,18.555,56.641
1621558106.676,23.438,30.762,32.227,37.109,62.988
1621558106.680,26.855,31.738,32.227,48.828,96.191
1621558106.684,35.156,34.180,30.273,62.988,25.879
1621558106.688,45.898,33.203,29.297,75.684,-28.320
1621558106.691,49.316,34.180,29.785,83.008,-40.527
1621558106.695,47.852,34.180,30.762,92.773,16.113
1621558106.699,48.340,28.320,32.227,101.074,6.836
1621558106.703,47.363,24.902,34.180,107.422,-35.156
1621558106.707,43.457,26.367,33.691,108.887,12.207
1621558106.720,40.527,31.250,35.156,105.469,56.152
1621558106.724,38.086,34.180,34.180,106.445,53.711
1621558106.728,41.504,34.180,30.273,107.422,34.668
1621558106.732,40.039,33.691,27.832,106.445,39.551
1621558106.736,29.785,33.691,28.320,104.980,-13.184
1621558106.740,29.785,33.203,32.227,102.539,-35.156
1621558106.744,32.715,35.156,32.715,104.492,49.316
1621558106.747,29.785,36.133,30.273,102.539,111.816
1621558106.751,31.738,30.273,30.762,100.586,52.734
1621558106.755,33.203,27.832,34.180,105.957,74.707
1621558106.759,30.762,24.414,35.156,109.375,71.289
1621558106.763,31.738,22.461,31.738,109.863,25.879
1621558106.758,25.879,26.367,31.250,106.445,41.016
1621558106.762,19.043,27.832,35.156,99.609,5.371
1621558106.766,9.766,26.855,33.203,89.355,-3.418
1621558106.770,0.000,28.809,27.344,82.520,-6.348
1621558106.774,0.977,29.297,26.855,78.125,3.418
1621558106.778,5.859,26.855,29.785,75.195,46.387
1621558106.782,14.160,25.391,28.320,86.914,32.227
1621558106.785,21.973,30.762,28.320,91.309,16.113
1621558106.789,22.461,36.621,24.902,77.637,24.902
1621558106.793,25.879,39.551,21.973,75.684,46.875
1621558106.797,32.715,41.016,20.996,78.613,13.184
1621558106.801,34.180,41.016,22.461,80.566,-43.457
1621558106.815,41.992,37.598,26.855,87.891,-11.230
1621558106.819,42.480,38.574,26.855,89.844,-1.953
1621558106.823,44.922,39.551,25.391,86.914,-4.883
1621558106.827,56.152,38.086,28.320,91.309,20.996
1621558106.831,53.711,38.574,28.809,98.633,7.324
1621558106.835,47.363,37.109,28.809,96.680,-47.363
1621558106.839,43.457,35.156,34.180,90.820,-2.930
1621558106.842,40.527,31.738,34.180,88.867,48.340
1621558106.846,38.086,26.855,30.273,91.309,-8.301
1621558106.850,34.668,29.297,31.738,93.750,-23.926
1621558106.854,34.668,29.297,33.691,94.727,-2.441
1621558106.858,32.715,27.832,32.227,91.309,34.180
1621558106.851,31.738,31.250,29.297,91.309,60.059
1621558106.855,34.668,28.809,31.250,89.844,13.184
1621558106.859,34.668,26.855,33.691,85.938,-2.441
1621558106.863,30.273,25.879,33.203,80.078,43.945
1621558106.867,26.855,23.438,31.738,73.242,16.602
1621558106.871,26.855,23.438,30.273,72.754,5.371
1621558106.875,26.855,25.879,29.297,74.219,23.438
1621558106.878,20.996,26.367,27.344,71.777,-30.762
1621558106.882,12.207,26.367,22.949,64.941,1.465
1621558106.886,8.789,27.832,23.926,58.594,48.828
1621558106.890,3.418,26.855,22.949,54.199,-10.742
1621558106.894,0.488,27.344,21.484,52.734,-4.395
1621558106.907,5.859,27.832,21.973,54.199,16.113
1621558106.911,10.742,26.855,22.461,57.129,41.504
1621558106.915,15.625,29.785,24.414,59.082,51.758
1621558106.919,20.996,31.250,24.902,53.223,38.574
1621558106.923,27.344,29.785,25.879,49.805,47.363
1621558106.927,38.574,31.250,27.832,56.641,0.000
1621558106.931,47.363,34.668,29.297,62.500,17.578
1621558106.934,45.410,34.180,28.809,63.965,36.621
1621558106.938,37.598,33.691,28.809,60.547,36.621
1621558106.942,38.574,32.715,27.832,63.477,54.199
1621558106.946,43.945,32.715,27.832,63.477,71.289
1621558106.950,46.387,36.133,32.227,59.570,54.199
1621558106.946,44.434,37.598,33.691,53.711,-4.395
1621558106.950,43.945,35.645,35.156,41.016,12.207
1621558106.954,50.781,34.668,36.621,37.598,54.199
1621558106.958,50.781,32.227,33.691,29.297,48.340
1621558106.962,41.992,31.738,31.250,11.230,29.785
1621558106.966,40.527,33.203,31.738,6.836,34.668
1621558106.970,38.574,29.297,34.180,0.488,1.953
1621558106.973,29.297,27.344,36.133,-14.160,-11.230
1621558106.977,22.949,27.344,34.668,-18.555,19.531
1621558106.981,21.973,26.855,32.227,-21.973,-14.160
1621558106.985,22.949,28.809,30.762,-25.391,35.156
1621558106.989,25.879,26.855,30.762,-28.320,35.156
1621558107.020,25.879,25.879,30.273,-33.203,18.555
1621558107.024,25.391,26.367,29.297,-38.086,102.051
1621558107.028,22.949,26.855,29.297,-37.109,70.312
1621558107.032,22.949,20.996,28.320,-36.621,57.129
1621558107.036,23.926,16.113,25.391,-41.504,41.504
1621558107.040,21.484,20.508,27.344,-44.922,17.090
1621558107.044,19.043,22.461,31.250,-43.945,-12.207
1621558107.047,16.602,22.461,32.227,-40.527,-27.344
1621558107.051,17.090,24.902,31.250,-40.527,32.715
1621558107.055,18.555,25.391,31.738,-42.969,88.867
1621558107.059,22.949,24.414,32.227,-39.062,61.035
1621558107.063,25.391,24.902,31.250,-34.668,42.969
1621558107.040,28.809,28.809,33.203,-30.273,22.949
1621558107.044,34.668,27.832,35.645,-26.367,14.648
1621558107.048,36.133,26.367,31.250,-24.414,48.828
1621558107.052,38.086,25.391,29.785,-18.555,43.457
1621558107.056,41.504,26.367,29.785,-10.254,47.363
1621558107.060,49.805,30.273,30.273,-10.254,65.918
1621558107.064,44.922,32.227,30.273,-12.207,76.172
1621558107.067,38.574,30.762,28.809,-3.906,30.273
1621558107.071,40.039,29.785,32.227,-1.953,25.391
1621558107.075,33.691,31.738,34.180,-5.859,32.715
1621558107.079,26.855,32.227,30.273,-9.766,4.883
1621558107.083,29.297,31.738,27.832,-8.789,8.301
1621558107.096,34.180,29.785,27.832,-4.395,30.273
1621558107.100,33.203,30.273,26.855,-7.812,83.496
1621558107.104,33.691,34.180,23.926,-16.113,104.492
1621558107.108,25.391,35.645,24.414,-26.367,65.918
1621558107.112,24.414,31.250,24.902,-25.391,20.020
1621558107.116,33.203,29.297,24.902,-20.996,-3.418
1621558107.120,32.227,31.738,26.855,-24.414,22.949
1621558107.123,31.738,34.180,28.320,-22.949,-22.949
1621558107.127,39.062,35.156,28.320,-15.137,-16.113
1621558107.131,41.992,33.691,27.832,-10.254,35.645
1621558107.135,42.969,34.668,28.320,-7.812,38.574
1621558107.139,42.480,32.715,29.297,-5.859,59.570
1621558107.132,38.086,30.762,29.297,-4.395,58.594
1621558107.136,32.715,31.738,26.855,-10.254,19.043
1621558107.140,32.227,30.273,26.367,-9.766,-13.184
1621558107.144,31.738,31.250,26.367,-7.812,-0.488
1621558107.148,25.391,31.250,24.902,-5.859,6.836
1621558107.152,25.391,30.762,25.879,4.395,-1.953
1621558107.156,27.344,29.785,25.879,6.836,-33.691
1621558107.159,25.879,28.320,26.367,9.766,-35.645
1621558107.163,23.926,30.762,27.832,13.184,-40.039
1621558107.167,28.809,29.297,26.855,11.230,-12.207
1621558107.171,35.156,27.832,26.855,13.672,34.180
1621558107.175,33.691,28.320,25.879,15.625,27.344
1621558107.188,33.203,27.344,26.367,16.113,7.324
1621558107.192,35.645,30.273,25.879,16.602,3.418
1621558107.196,35.645,33.203,25.879,15.137,-0.488
1621558107.200,34.180,33.203,27.344,14.160,8.789
1621558107.204,31.250,38.086,25.391,10.254,7.812
1621558107.208,33.203,38.086,22.949,0.977,-17.090
1621558107.212,37.598,33.691,22.949,3.418,26.367
1621558107.215,37.109,36.133,25.879,4.395,53.223
1621558107.219,34.180,37.109,28.320,-0.977,36.621
1621558107.223,33.203,34.668,25.391,-1.953,6.836
1621558107.227,28.809,32.715,23.438,-0.488,-2.441
1621558107.231,26.855,34.668,23.926,3.418,31.738
1621558107.227,29.297,34.668,25.391,1.465,-19.043
1621558107.231,29.297,30.273,26.367,-3.906,17.578
1621558107.235,28.320,26.367,27.832,-4.395,67.383
1621558107.239,25.879,28.809,27.832,-6.836,2.441
1621558107.243,24.414,29.785,30.762,-8.301,-32.715
1621558107.247,21.484,29.297,34.668,-4.883,7.324
1621558107.251,20.996,30.273,35.645,1.953,56.152
1621558107.254,26.367,28.809,35.645,8.789,-4.395
1621558107.258,27.832,27.832,35.156,13.672,14.160
1621558107.262,23.438,28.809,33.203,11.230,1.465
1621558107.266,23.926,26.367,35.645,13.184,-20.508
1621558107.270,29.297,24.902,37.598,28.320,65.918
1621558107.282,27.832,27.832,34.180,33.203,81.055
1621558107.286,23.438,26.367,32.715,24.414,54.199
1621558107.290,26.367,27.832,31.250,23.438,-13.672
1621558107.294,34.668,31.738,31.250,26.367,-42.969
1621558107.298,35.156,31.738,30.762,26.367,20.508
1621558107.302,32.227,32.715,28.809,19.531,32.715
1621558107.306,31.738,31.250,29.297,19.043,3.906
1621558107.309,34.180,31.738,28.320,25.391,41.992
1621558107.313,36.621,34.668,28.320,24.414,58.105
1621558107.317,29.785,33.691,28.809,19.531,-7.324
1621558107.321,28.320,31.738,31.250,20.020,10.742
1621558107.325,31.738,31.738,31.250,20.996,95.703
1621558107.321,31.738,30.762,27.832,20.508,25.879
1621558107.325,30.762,30.273,26.855,20.996,-0.488
1621558107.329,33.691,32.715,27.832,20.996,28.809
1621558107.333,36.133,35.645,28.809,18.555,22.461
1621558107.337,32.715,35.645,30.762,17.090,27.344
1621558107.341,25.879,32.227,31.250,16.602,32.715
1621558107.345,21.484,29.785,32.715,10.742,41.992
1621558107.348,20.020,27.832,33.203,8.789,26.855
1621558107.352,23.926,24.902,32.715,11.230,52.734
1621558107.356,27.344,23.926,32.715,14.648,67.871
1621558107.360,23.438,24.902,32.227,17.578,19.043
1621558107.364,19.531,26.367,30.762,13.672,-19.043
1621558107.377,21.484,25.879,31.738,13.184,1.465
1621558107.381,25.879,28.809,32.227,15.137,75.195
1621558107.385,24.414,28.320,33.203,18.555,67.871
1621558107.389,18.066,26.367,31.738,20.508,61.523
1621558107.393,16.113,26.367,28.320,20.996,79.590
1621558107.397,19.531,24.902,30.762,23.438,47.363
1621558107.401,22.461,24.902,33.691,23.926,42.969
1621558107.404,20.996,26.367,31.250,20.996,15.137
1621558107.408,28.320,28.809,30.762,22.949,48.340
1621558107.412,36.133,26.855,28.320,25.879,45.898
1621558107.416,38.086,27.832,27.832,25.391,35.156
1621558107.420,39.551,29.785,30.273,25.879,3.418
1621558107.414,42.480,28.809,31.250,27.832,-8.789
1621558107.418,45.410,24.902,32.715,32.715,2.441
1621558107.422,40.039,24.414,35.645,33.203,21.484
1621558107.426,37.109,28.809,36.621,34.180,52.734
1621558107.430,43.457,31.738,36.621,35.156,7.324
1621558107.434,41.992,33.203,34.668,28.809,-12.695
1621558107.438,40.527,32.227,36.621,30.762,20.996
1621558107.441,38.574,32.227,37.109,25.391,7.324
1621558107.445,30.273,30.762,27.832,8.301,31.250
1621558107.449,24.902,29.785,23.438,5.859,0.977
1621558107.453,25.391,29.297,25.391,10.742,2.930
1621558107.457,27.832,30.762,27.344,9.766,62.988
1621558107.470,31.738,32.715,29.785,10.254,37.598
1621558107.474,32.715,33.203,32.227,15.137,63.477
1621558107.478,34.180,30.762,32.715,23.438,26.367
1621558107.482,34.180,30.273,34.668,31.250,-23.438
1621558107.486,31.738,33.691,35.156,32.715,-19.531
1621558107.490,29.297,32.715,34.668,32.227,-31.250
1621558107.494,26.855,29.785,33.203,32.227,8.301
1621558107.497,24.902,29.297,31.250,32.227,27.832
1621558107.501,22.949,28.320,32.227,28.320,-10.742
1621558107.505,24.414,29.297,37.109,25.391,-20.508
1621558107.509,27.344,31.738,35.645,29.785,31.738
1621558107.513,28.809,33.691,34.180,33.691,20.508
1621558107.507,30.273,33.203,35.156,34.180,-30.762
1621558107.511,29.785,34.668,34.180,30.762,-16.113
1621558107.515,31.250,34.180,36.621,33.203,50.781
1621558107.519,34.668,30.762,35.645,36.621,48.828
1621558107.523,34.668,28.809,32.227,34.180,19.531
1621558107.527,28.809,28.809,31.250,28.809,24.414
1621558107.531,27.344,26.367,32.227,27.832,17.090
1621558107.534,31.250,28.320,32.227,30.273,5.371
1621558107.538,31.738,31.250,30.273,26.367,36.621
1621558107.542,33.691,30.273,31.738,20.020,36.133
1621558107.546,33.691,26.855,31.738,18.555,20.020
1621558107.550,34.180,27.832,31.250,20.020,31.738
1621558107.582,35.645,32.715,34.180,23.438,83.008
1621558107.586,37.109,32.715,34.180,19.531,50.781
1621558107.590,40.039,30.273,33.203,15.625,38.574
1621558107.594,38.086,33.691,32.715,22.949,52.734
1621558107.598,39.551,29.785,32.715,28.809,12.207
1621558107.602,40.039,22.949,34.180,29.785,6.836
1621558107.606,35.156,29.785,38.086,27.832,15.625
1621558107.609,31.738,32.227,37.109,23.926,-16.113
1621558107.613,30.273,31.738,35.156,27.344,-37.598
1621558107.617,29.297,32.715,34.668,33.691,-13.672
1621558107.621,25.879,31.738,33.691,29.785,18.066
1621558107.625,26.855,30.273,31.250,20.508,28.809
1621558107.603,30.273,30.762,28.809,23.926,42.480
1621558107.607,29.297,27.832,29.297,30.273,21.973
1621558107.611,29.297,27.832,31.250,30.762,9.766
1621558107.615,31.250,30.762,32.227,34.668,25.879
1621558107.619,29.785,31.250,32.227,32.227,35.645
1621558107.623,36.133,32.715,32.227,34.180,34.180
1621558107.627,37.598,31.738,35.156,38.574,60.059
1621558107.630,32.715,28.809,37.109,34.668,20.508
1621558107.634,33.691,28.809,37.109,36.621,-13.184
1621558107.638,34.668,30.762,35.156,37.598,-18.555
1621558107.642,33.203,30.762,34.180,34.180,-49.805
1621558107.646,31.250,33.203,32.715,33.691,10.254
1621558107.658,29.297,30.762,28.320,28.809,53.223
1621558107.662,35.156,29.297,27.344,26.855,64.453
1621558107.666,39.062,32.227,27.344,30.762,11.230
1621558107.670,37.598,30.762,29.297,30.762,-17.090
1621558107.674,44.922,30.273,33.203,31.250,-42.480
1621558107.678,49.805,31.738,30.762,33.691,-0.977
1621558107.682,48.828,32.715,31.250,30.762,83.496
1621558107.685,50.293,33.691,31.738,25.391,69.824
1621558107.689,51.270,33.203,27.832,22.461,44.434
1621558107.693,41.992,33.203,26.855,20.996,50.781
1621558107.697,35.645,30.762,27.832,22.461,31.250
1621558107.701,34.668,29.785,26.855,23.438,-2.441
1621558107.695,29.297,32.227,27.344,20.020,-6.348
1621558107.699,28.809,33.203,32.227,22.461,-11.230
1621558107.703,25.391,32.227,33.691,25.879,11.719
1621558107.707,17.578,29.297,32.715,21.484,45.410
1621558107.711,16.602,27.832,33.203,22.461,26.367
1621558107.715,21.973,29.297,29.785,26.855,19.531
1621558107.719,22.461,28.320,28.320,31.250,39.551
1621558107.722,26.367,29.297,31.738,37.109,78.125
1621558107.726,32.227,28.320,31.738,38.574,60.059
1621558107.730,35.645,26.855,33.691,38.086,47.852
1621558107.734,32.227,28.320,33.691,38.086,71.777
1621558107.738,29.297,25.391,28.809,36.133,20.508
1621558107.751,32.227,23.438,28.809,35.156,13.672
1621558107.755,31.738,25.391,28.809,31.738,1.465
1621558107.759,29.785,26.855,21.973,28.320,-16.113
1621558107.763,30.762,30.273,20.508,31.250,-15.625
1621558107.767,25.879,29.785,21.973,24.414,-24.902
1621558107.771,20.508,24.902,23.926,18.555,20.508
1621558107.775,23.926,24.902,23.926,18.555,64.941
1621558107.778,26.855,22.461,20.996,19.531,84.961
1621558107.782,25.391,26.367,21.973,15.137,41.016
1621558107.786,25.879,28.809,24.902,12.695,4.395
1621558107.790,28.320,29.297,27.344,19.531,25.391
1621558107.794,29.785,27.832,27.344,20.508,-11.230
1621558107.788,28.809,24.414,27.832,18.555,12.695
1621558107.792,25.391,24.414,29.297,20.020,59.082
1621558107.796,26.367,24.414,30.273,21.484,20.996
1621558107.800,30.762,24.902,33.203,28.320,7.324
1621558107.804,32.227,23.926,29.297,36.621,23.438
1621558107.808,26.855,22.461,27.344,34.668,35.156
1621558107.812,23.926,25.391,30.273,32.715,24.414
1621558107.815,23.438,26.855,30.762,34.180,44.434
1621558107.819,20.996,26.367,31.738,37.598,85.938
1621558107.823,26.367,24.414,31.250,42.480,52.734
1621558107.827,28.320,26.367,31.250,39.551,-21.973
1621558107.831,26.855,25.879,33.203,39.551,-23.438
1621558107.845,31.250,26.855,34.180,42.480,-4.395
1621558107.849,29.297,29.297,32.715,38.574,8.301
1621558107.853,27.344,29.785,29.785,30.273,25.391
1621558107.857,22.949,29.297,24.902,23.438,4.395
1621558107.861,22.949,28.320,21.973,23.438,33.691
1621558107.865,32.227,29.785,24.902,23.438,34.180
1621558107.869,35.156,29.785,24.902,18.555,10.742
1621558107.872,35.156,27.832,21.973,14.160,38.574
1621558107.876,36.133,29.785,22.461,17.578,60.059
1621558107.880,40.527,29.785,25.879,23.926,42.480
1621558107.884,38.574,24.414,26.855,20.020,60.547
1621558107.888,33.691,22.949,24.414,15.625,57.129
1621558107.883,36.621,26.367,22.949,17.578,20.508
1621558107.887,39.551,29.297,21.973,20.020,38.086
1621558107.891,37.109,30.273,22.461,21.484,37.109
1621558107.895,31.250,30.273,21.484,14.648,30.762
1621558107.899,31.738,31.738,22.949,12.695,63.477
1621558107.903,30.762,30.762,24.902,17.090,68.359
1621558107.907,32.715,29.297,24.902,20.020,-3.906
1621558107.910,31.250,27.832,24.902,19.531,0.977
1621558107.914,24.902,25.391,23.926,17.578,60.059
1621558107.918,29.297,25.879,26.855,26.855,71.777
1621558107.922,31.738,24.414,29.785,32.715,39.551
1621558107.926,30.762,23.926,29.785,31.250,1.953
1621558107.940,25.391,22.461,28.320,27.832,6.836
1621558107.944,22.461,20.996,30.762,31.250,33.691
1621558107.948,20.508,22.461,31.250,34.180,54.688
1621558107.952,17.090,21.484,30.273,28.809,72.266
1621558107.956,20.020,20.996,30.762,26.855,83.984
1621558107.960,23.438,20.996,31.250,27.832,37.598
1621558107.964,29.785,21.973,29.297,27.832,27.344
1621558107.967,33.203,26.367,29.297,26.367,15.625
1621558107.971,35.156,28.320,33.691,28.320,38.574
1621558107.975,39.551,28.809,34.668,30.762,65.918
1621558107.979,44.434,30.762,33.691,27.832,41.504
1621558107.983,47.363,32.715,32.715,31.250,55.664
1621558107.976,40.527,28.809,31.250,26.855,16.602
1621558107.980,30.273,27.344,31.738,17.578,27.832
1621558107.984,30.762,31.738,32.227,19.531,37.598
1621558107.988,35.156,32.227,33.203,22.461,46.875
1621558107.992,31.250,29.785,31.250,20.508,11.719
1621558107.996,24.414,28.320,29.297,17.578,-22.461
1621558108.000,20.020,30.273,30.762,14.648,-8.789
1621558108.003,21.973,30.273,32.227,18.066,24.902
1621558108.007,24.902,27.832,31.738,25.391,71.777
1621558108.011,19.043,28.809,29.297,21.484,41.016
1621558108.015,17.090,28.320,27.344,20.508,14.648
1621558108.019,24.902,26.855,25.391,27.344,31.250
1621558108.032,24.902,25.391,22.949,27.344,35.645
1621558108.036,20.996,22.461,21.973,23.926,81.055
1621558108.040,18.066,23.926,24.902,23.438,23.926
1621558108.044,16.113,26.367,28.320,26.855,-60.059
1621558108.048,16.113,26.367,27.832,29.297,16.113
1621558108.052,12.695,26.367,29.785,26.367,23.926
1621558108.056,12.695,26.855,31.250,26.367,7.812
1621558108.059,19.043,27.344,30.273,32.227,51.758
1621558108.063,27.344,29.297,30.762,31.250,-2.441
1621558108.067,28.809,26.367,31.738,24.902,13.184
1621558108.071,28.809,26.855,32.715,22.949,24.414
1621558108.075,35.156,31.250,31.250,23.926,-16.113
1621558108.070,39.551,32.715,31.250,21.973,-12.207
1621558108.074,39.062,32.715,32.715,20.508,-17.578
1621558108.078,35.645,34.180,30.762,18.066,5.859
1621558108.082,29.297,35.156,29.785,19.043,-22.949
1621558108.086,31.738,34.668,28.320,20.508,15.625
1621558108.090,37.109,33.691,25.879,20.508,21.973
1621558108.094,32.227,32.227,24.414,17.090,19.043
1621558108.097,27.832,33.203,24.902,10.742,20.508
1621558108.101,25.391,33.203,23.926,9.766,1.953
1621558108.105,22.461,35.645,21.973,10.742,62.988
1621558108.109,25.879,35.645,20.996,13.672,50.781
1621558108.113,27.832,31.738,24.902,20.508,24.414
1621558108.126,28.320,33.691,26.855,26.367,60.059
1621558108.130,34.180,32.227,24.902,32.715,88.379
1621558108.134,34.668,27.832,25.391,34.180,38.574
1621558108.138,36.133,29.785,27.344,36.133,-1.465
1621558108.142,35.645,31.250,31.738,43.457,45.410
1621558108.146,29.297,32.715,33.203,48.340,6.348
1621558108.150,22.461,30.273,27.832,40.527,-56.152
1621558108.153,16.602,26.367,26.855,33.691,8.301
1621558108.157,15.137,28.809,28.809,31.250,22.461
1621558108.161,16.113,29.297,26.855,27.344,58.105
1621558108.165,13.184,28.809,22.949,22.949,38.574
1621558108.169,17.578,27.344,21.484,21.484,40.039
1621558108.165,22.949,29.297,22.949,21.484,107.422
1621558108.169,25.879,27.344,26.367,23.438,80.078
1621558108.173,28.809,27.832,25.391,22.949,12.695
1621558108.177,29.785,32.715,28.320,22.461,-12.207
1621558108.181,30.273,31.738,29.297,26.367,2.930
1621558108.185,37.598,27.832,24.902,27.832,31.250
1621558108.189,38.086,30.762,23.438,28.320,28.320
1621558108.192,29.785,31.738,22.949,24.902,35.645
1621558108.196,29.785,31.738,22.949,22.461,36.621
1621558108.200,29.785,33.203,22.949,21.484,62.988
1621558108.204,28.320,32.715,23.438,20.508,24.902
1621558108.208,27.344,33.203,27.344,24.902,-7.324
1621558108.221,26.855,31.738,28.320,25.879,36.621
1621558108.225,27.832,29.297,29.297,25.879,71.777
1621558108.229,32.715,27.832,31.738,30.273,7.812
1621558108.233,31.250,28.320,31.250,33.691,-4.883
1621558108.237,34.180,30.273,32.715,36.133,25.879
1621558108.241,37.598,30.762,33.203,34.668,6.348
1621558108.245,30.762,30.762,30.762,30.762,28.320
1621558108.248,32.227,30.273,27.344,28.320,52.734
1621558108.252,36.621,28.320,28.320,27.832,66.895
1621558108.256,33.691,27.832,30.273,29.297,51.270
1621558108.260,34.180,29.297,29.297,31.738,60.547
1621558108.264,29.785,28.320,27.344,30.762,57.129
1621558108.257,21.484,25.879,28.320,25.391,29.785
1621558108.261,20.508,25.879,33.203,26.367,43.945
1621558108.265,17.578,25.879,36.621,30.273,60.547
1621558108.269,16.602,25.879,34.180,33.203,-23.438
1621558108.273,20.020,27.344,33.691,27.832,-2.441
1621558108.277,20.020,28.320,32.715,20.508,23.438
1621558108.281,23.438,31.250,30.273,23.438,12.695
1621558108.284,32.227,31.738,26.855,27.344,80.078
1621558108.288,34.668,28.320,26.367,31.738,29.785
