timestamps,TP9,AF7,AF8,TP10,Right AUX
1621557624.656,23.926,6.348,27.344,36.621,-23.926
1621557624.660,22.461,12.207,25.391,41.504,2.441
1621557624.664,29.785,15.137,28.320,38.086,40.527
1621557624.668,36.621,11.719,28.320,40.527,49.805
1621557624.672,36.621,11.719,27.832,39.062,57.617
1621557624.676,43.457,7.324,28.320,41.504,71.289
1621557624.680,39.062,4.883,31.250,44.922,68.848
1621557624.683,25.391,10.254,30.762,40.039,5.859
1621557624.687,20.508,12.695,30.273,33.203,-62.988
1621557624.691,34.180,7.324,34.668,37.598,-29.785
1621557624.695,43.457,11.230,33.203,38.574,2.441
1621557624.699,41.992,13.184,29.297,39.551,21.973
1621557624.712,37.109,11.230,31.250,41.016,71.777
1621557624.716,26.367,10.254,33.691,40.527,13.184
1621557624.720,32.227,5.859,34.668,44.922,1.953
1621557624.724,37.109,2.441,34.180,33.203,65.430
1621557624.728,31.250,4.395,30.762,25.391,74.219
1621557624.732,26.367,9.766,30.273,32.227,-10.254
1621557624.736,27.832,9.277,31.738,25.879,-28.320
1621557624.739,31.250,10.742,31.738,19.531,42.480
1621557624.743,37.598,11.719,34.668,14.160,-8.301
1621557624.747,41.504,9.277,31.738,5.859,-36.621
1621557624.751,39.551,5.859,27.344,11.230,-24.414
1621557624.755,40.039,9.766,27.832,18.555,40.527
1621557624.751,44.922,13.184,25.879,19.531,95.703
1621557624.755,41.504,10.254,28.320,31.738,92.285
1621557624.759,43.457,8.789,29.297,38.086,58.594
1621557624.763,49.805,10.742,27.344,42.480,-2.930
1621557624.767,45.898,6.836,29.785,50.293,37.109
1621557624.771,38.086,6.836,30.273,46.875,41.504
1621557624.775,30.273,11.719,29.785,40.039,33.691
1621557624.778,23.438,9.766,28.320,38.574,20.020
1621557624.782,30.762,7.812,26.855,32.715,8.301
1621557624.786,26.367,1.465,29.785,36.133,59.082
1621557624.790,14.160,0.000,27.344,43.457,20.020
1621557624.794,21.484,5.859,22.461,41.992,2.930
1621557624.807,25.879,5.859,20.996,42.480,33.691
1621557624.811,20.508,6.836,21.484,35.645,4.883
1621557624.815,29.297,7.812,23.438,36.621,37.598
1621557624.819,49.316,8.789,26.367,41.992,84.473
1621557624.823,53.223,12.695,24.902,35.156,9.277
1621557624.827,43.457,18.555,19.531,28.809,-25.391
1621557624.831,34.668,14.648,18.066,19.531,21.484
1621557624.834,28.809,11.230,18.066,20.020,41.992
1621557624.838,29.297,12.695,18.066,21.484,32.715
1621557624.842,35.645,11.230,16.602,6.836,57.129
1621557624.846,48.828,11.230,14.648,-4.883,41.016
1621557624.850,56.152,11.230,16.113,3.418,-2.441
1621557624.844,33.203,12.207,20.020,18.555,51.758
1621557624.848,21.973,7.324,25.391,26.367,60.547
1621557624.852,33.691,5.859,26.367,26.367,32.715
1621557624.856,31.738,6.836,27.344,28.320,36.133
1621557624.860,27.344,2.930,26.855,32.715,44.922
1621557624.864,32.715,5.859,25.879,37.109,27.832
1621557624.868,34.180,6.836,25.879,38.086,24.902
1621557624.871,24.414,4.883,22.461,38.086,34.180
1621557624.875,19.531,3.906,21.973,29.785,30.273
1621557624.879,18.555,0.488,24.902,33.203,38.574
1621557624.883,13.672,0.977,24.414,38.574,12.695
1621557624.887,13.672,-2.441,24.902,35.156,-35.156
1621557624.919,17.578,-5.371,26.367,36.133,24.414
1621557624.923,15.137,-4.883,27.344,34.180,56.152
1621557624.927,11.719,-2.441,29.297,39.062,7.812
1621557624.931,16.602,-1.465,26.855,37.109,50.781
1621557624.935,18.066,-1.953,22.949,31.738,53.711
1621557624.939,23.438,1.465,24.414,37.109,49.805
1621557624.943,36.133,3.906,27.832,36.621,65.918
1621557624.946,41.504,0.977,27.832,31.738,44.434
1621557624.950,40.039,8.789,22.949,27.344,7.812
1621557624.954,49.316,14.160,16.602,22.949,54.688
1621557624.958,64.453,9.277,14.160,21.484,60.547
1621557624.962,51.270,6.836,15.625,16.113,-64.453
1621557624.939,52.246,12.207,10.254,12.207,10.742
1621557624.943,44.922,17.578,6.836,8.789,20.996
1621557624.947,31.738,7.812,6.836,10.254,-20.020
1621557624.951,31.738,3.906,9.277,21.484,44.434
1621557624.955,24.902,8.789,13.184,21.484,20.020
1621557624.959,23.926,8.301,13.184,20.996,-23.926
1621557624.963,15.625,5.371,14.648,35.645,-10.742
1621557624.966,12.695,5.859,17.578,39.551,83.984
1621557624.970,22.949,8.301,19.531,37.109,78.613
1621557624.974,22.461,4.395,19.043,34.668,23.438
1621557624.978,21.973,2.930,18.066,40.527,31.250
1621557624.982,22.949,4.883,21.484,41.992,-3.418
1621557624.994,17.578,0.488,22.949,35.156,-52.734
1621557624.998,22.949,-0.488,22.461,39.551,27.344
1621557625.002,22.949,2.930,20.996,40.039,50.781
1621557625.006,13.672,1.953,17.578,37.598,-5.859
1621557625.010,6.836,1.465,17.090,32.715,-17.090
1621557625.014,20.508,-1.465,17.578,31.250,7.324
1621557625.018,39.551,2.930,18.555,39.551,-6.348
1621557625.021,41.992,8.789,16.602,37.109,4.395
1621557625.025,33.203,3.418,11.719,31.738,76.172
1621557625.029,26.367,2.930,10.742,28.320,83.496
1621557625.033,35.645,3.418,11.719,28.320,46.387
1621557625.037,47.852,12.695,14.160,28.320,80.078
1621557625.031,38.574,21.973,11.230,17.090,68.848
1621557625.035,33.691,12.695,13.184,23.926,56.152
1621557625.039,42.969,12.695,15.625,24.414,51.270
1621557625.043,41.992,14.160,16.113,21.973,33.691
1621557625.047,50.293,11.230,15.625,25.879,31.738
1621557625.051,51.270,11.719,13.672,15.137,18.066
1621557625.055,38.574,12.695,12.207,13.184,66.895
1621557625.058,33.691,16.113,8.789,21.484,65.430
1621557625.062,31.250,11.230,7.812,29.785,78.125
1621557625.066,25.879,9.766,9.277,28.809,43.945
1621557625.070,16.113,11.230,10.742,27.832,-31.250
1621557625.074,14.160,8.301,10.742,31.250,24.902
1621557625.088,24.414,12.207,9.277,31.250,45.410
1621557625.092,27.344,12.695,10.742,31.738,27.832
1621557625.096,17.578,7.324,13.184,31.738,52.246
1621557625.100,12.695,6.836,14.160,36.133,20.996
1621557625.104,20.996,5.859,12.695,37.109,23.438
1621557625.108,20.996,5.371,9.766,36.133,18.066
1621557625.112,20.508,1.465,11.719,41.016,36.621
1621557625.115,24.414,-4.883,11.719,46.875,22.461
1621557625.119,27.344,0.977,10.742,54.199,-21.973
1621557625.123,25.879,1.953,15.137,41.016,4.395
1621557625.127,27.832,4.395,12.695,21.973,33.691
1621557625.131,48.340,10.742,5.859,25.391,34.180
1621557625.125,59.570,6.836,8.301,32.227,-33.203
1621557625.129,43.945,6.836,10.742,33.203,-90.820
1621557625.133,49.805,8.789,8.789,35.156,-54.688
1621557625.137,50.781,14.160,6.836,34.668,6.348
1621557625.141,38.574,7.812,4.883,38.086,49.805
1621557625.145,41.016,1.465,3.906,41.016,28.320
1621557625.149,42.480,5.859,7.812,43.457,-14.648
1621557625.152,45.410,6.348,6.348,37.109,-32.227
1621557625.156,44.922,5.859,3.906,36.621,-30.762
1621557625.160,40.039,9.277,6.348,41.992,-13.672
1621557625.164,44.434,10.742,6.348,36.621,27.344
1621557625.168,50.781,9.277,6.836,28.809,47.852
1621557625.181,48.828,4.395,6.348,29.297,47.363
1621557625.185,41.504,3.418,10.254,37.598,40.039
1621557625.189,29.297,5.859,10.742,42.480,16.113
1621557625.193,25.879,1.465,7.324,39.551,-15.625
1621557625.197,16.602,0.488,9.277,35.156,16.602
1621557625.201,11.719,4.883,9.277,34.180,0.000
1621557625.205,16.113,3.418,6.836,36.621,-30.273
1621557625.208,29.785,1.465,9.766,44.434,28.320
1621557625.212,39.062,6.836,9.766,33.691,31.738
1621557625.216,33.203,9.277,10.742,33.203,19.531
1621557625.220,37.598,5.859,10.742,46.387,83.496
1621557625.224,31.738,7.324,7.324,44.922,40.039
1621557625.219,34.668,4.883,7.324,39.062,11.719
1621557625.223,42.969,4.395,5.859,32.227,34.668
1621557625.227,35.645,6.348,9.766,33.203,76.660
1621557625.231,34.180,2.441,13.184,29.297,75.195
1621557625.235,50.293,0.000,14.648,26.367,48.340
1621557625.239,43.457,0.977,14.648,32.227,31.738
1621557625.243,28.809,7.812,12.695,33.691,17.090
1621557625.246,38.086,1.465,14.648,33.203,77.637
1621557625.250,38.574,-1.953,16.113,27.832,87.891
1621557625.254,32.227,2.930,17.578,31.738,41.016
1621557625.258,32.715,-2.930,17.578,42.969,18.555
1621557625.262,39.062,-4.883,16.602,40.527,55.664
1621557625.275,40.039,-1.465,19.043,37.109,81.055
1621557625.279,42.969,4.395,20.508,41.992,62.988
1621557625.283,41.992,12.207,19.531,35.156,21.484
1621557625.287,44.434,10.254,18.555,36.133,20.508
1621557625.291,38.086,1.465,19.531,41.992,32.227
1621557625.295,30.762,5.859,20.020,35.645,42.969
1621557625.299,35.645,9.766,18.066,31.250,86.914
1621557625.302,32.715,11.719,13.184,29.785,46.875
1621557625.306,49.805,11.719,14.160,37.109,3.906
1621557625.310,53.711,6.836,13.672,40.527,13.184
1621557625.314,31.738,3.906,12.207,33.203,36.133
1621557625.318,24.902,7.812,9.277,32.715,22.949
1621557625.314,41.992,8.789,8.789,41.016,11.719
1621557625.318,54.199,2.441,14.160,34.668,35.156
1621557625.322,47.363,-1.953,14.160,22.461,30.762
1621557625.326,23.926,2.930,12.695,18.555,-0.977
1621557625.330,22.461,7.812,11.719,26.367,-20.996
1621557625.334,34.668,-1.465,15.137,32.227,11.230
1621557625.338,34.668,-7.324,19.531,24.902,69.336
1621557625.341,40.527,-2.441,19.043,19.531,72.266
1621557625.345,41.504,3.906,16.113,23.926,38.574
1621557625.349,35.156,3.906,13.672,24.414,-20.996
1621557625.353,34.180,2.930,11.719,21.484,-40.039
1621557625.357,23.926,0.000,11.230,26.855,11.230
1621557625.370,20.020,-1.953,12.207,35.156,46.875
1621557625.374,24.902,-2.930,12.207,34.668,13.672
1621557625.378,23.438,-2.441,10.742,24.414,37.109
1621557625.382,28.809,-2.930,11.230,33.203,25.391
1621557625.386,33.203,-3.418,14.648,42.969,-37.598
1621557625.390,38.086,-4.883,18.555,44.434,-4.883
1621557625.394,37.109,-1.465,19.043,53.711,20.508
1621557625.397,30.762,-3.906,21.973,51.758,-2.930
1621557625.401,37.109,-5.371,22.949,45.898,-15.625
1621557625.405,48.828,-2.930,15.625,48.828,47.363
1621557625.409,50.293,-1.465,13.672,41.992,44.922
1621557625.413,48.340,3.418,16.113,36.621,-45.898
1621557625.406,44.922,3.906,12.695,32.715,-38.086
1621557625.410,53.711,4.883,9.766,31.250,43.457
1621557625.414,52.734,5.371,9.277,29.297,65.430
1621557625.418,31.738,6.836,13.672,29.297,38.574
1621557625.422,30.762,11.230,13.184,26.367,29.785
1621557625.426,44.434,11.719,10.742,28.320,58.105
1621557625.430,45.898,9.277,15.625,30.273,49.805
1621557625.433,42.480,8.789,12.695,22.949,18.555
1621557625.437,40.527,4.395,11.719,22.461,48.340
1621557625.441,22.949,7.324,10.254,25.391,38.574
1621557625.445,20.508,5.371,7.324,31.738,28.809
1621557625.449,27.832,-0.977,15.137,35.156,26.367
1621557625.462,11.719,3.418,16.113,23.438,28.809
1621557625.466,0.000,-0.488,16.113,20.996,8.301
1621557625.470,-0.488,-2.930,20.996,31.738,-25.879
1621557625.474,0.000,0.000,16.113,32.227,9.277
1621557625.478,0.488,-4.883,13.672,32.227,8.789
1621557625.482,11.230,-5.371,17.090,26.367,-3.906
1621557625.486,22.949,-5.371,19.531,26.855,23.926
1621557625.489,20.020,-7.324,20.020,34.180,15.625
1621557625.493,16.602,-5.371,18.066,34.668,-4.883
1621557625.497,19.531,-3.418,16.602,32.227,10.742
1621557625.501,18.066,-2.441,18.555,35.645,0.977
1621557625.505,20.996,-5.859,20.020,38.574,11.230
1621557625.500,29.297,-1.953,16.113,33.691,25.879
1621557625.504,36.133,1.465,16.602,31.738,44.922
1621557625.508,51.270,3.906,14.160,20.508,53.223
1621557625.512,53.711,8.789,10.742,20.020,56.152
1621557625.516,38.574,9.277,12.695,31.250,35.645
1621557625.520,43.945,16.113,8.789,24.902,102.539
1621557625.524,62.988,17.578,7.324,19.531,123.047
1621557625.527,65.918,10.254,8.301,25.879,43.945
1621557625.531,51.270,6.348,10.254,28.320,-7.812
1621557625.535,56.641,7.324,12.695,29.297,21.484
1621557625.539,61.523,10.742,10.742,25.391,73.730
1621557625.543,40.039,11.230,6.836,20.508,38.574
1621557625.556,37.109,7.324,3.418,22.461,46.875
1621557625.560,49.805,7.324,4.395,28.809,48.828
1621557625.564,28.320,9.277,10.254,35.156,-13.672
1621557625.568,8.301,0.488,19.043,34.180,18.066
1621557625.572,7.812,-2.441,23.926,36.133,20.508
1621557625.576,1.465,0.488,22.461,34.668,71.777
1621557625.580,-0.488,-0.488,19.531,29.785,91.797
1621557625.583,-1.465,-5.859,20.996,38.086,0.000
1621557625.587,9.766,-10.254,22.461,45.898,24.414
1621557625.591,12.695,-7.812,20.508,41.504,56.152
1621557625.595,-3.418,-7.812,23.438,45.410,45.898
1621557625.599,-4.395,-12.695,22.949,51.270,14.160
1621557625.595,0.488,-10.742,15.137,52.246,24.902
1621557625.599,9.766,-10.254,15.137,51.758,66.406
1621557625.603,20.508,-8.301,14.160,42.969,52.734
1621557625.607,24.414,-3.906,13.184,34.180,28.809
1621557625.611,31.738,-7.812,15.625,37.598,27.832
1621557625.615,27.344,-7.324,11.719,40.039,-4.883
1621557625.619,31.250,0.000,14.160,45.898,28.809
1621557625.622,44.922,4.883,19.043,41.992,91.309
1621557625.626,50.781,10.742,14.648,23.926,76.172
1621557625.630,47.852,11.719,7.324,29.297,43.945
1621557625.634,46.387,4.883,2.441,25.879,17.578
1621557625.638,60.059,3.418,5.859,21.484,8.301
1621557625.651,62.500,8.301,8.789,26.855,20.020
1621557625.655,54.199,12.207,6.836,25.391,28.320
1621557625.659,59.570,11.230,9.277,27.344,19.043
1621557625.663,46.875,6.836,12.695,27.832,-39.062
1621557625.667,30.762,15.625,13.184,26.855,-39.062
1621557625.671,42.969,15.625,15.137,28.809,0.000
1621557625.675,53.223,9.277,12.695,31.250,35.645
1621557625.678,61.035,10.742,7.324,29.297,41.504
1621557625.682,55.664,7.812,12.695,34.180,-12.695
1621557625.686,48.828,8.301,12.207,49.316,-3.418
1621557625.690,37.598,13.672,9.277,45.410,59.082
1621557625.694,28.320,13.672,12.207,36.621,8.301
1621557625.687,30.762,5.371,9.277,33.691,-44.434
1621557625.691,22.461,0.977,6.836,32.227,-4.883
1621557625.695,13.184,2.441,8.789,28.320,46.387
1621557625.699,14.648,0.977,9.277,26.367,104.004
1621557625.703,9.766,-0.488,6.348,33.691,63.965
1621557625.707,6.836,-3.418,9.766,27.832,38.574
1621557625.711,19.531,-5.371,14.648,28.320,26.855
1621557625.714,20.508,-2.930,14.648,31.250,37.598
1621557625.718,10.254,-3.418,13.184,23.438,83.496
1621557625.722,6.836,-4.395,10.742,20.508,36.621
1621557625.726,12.695,-3.906,10.254,24.902,13.184
1621557625.730,21.973,-7.324,12.695,32.715,24.902
1621557625.744,19.043,-6.348,13.672,33.203,68.359
1621557625.748,12.695,-1.465,15.625,34.180,74.219
1621557625.752,23.438,-3.906,18.555,39.062,26.367
1621557625.756,34.668,0.000,13.672,35.156,15.137
1621557625.760,41.992,4.883,8.301,25.879,60.547
1621557625.764,46.875,3.906,8.789,24.414,96.680
1621557625.768,61.523,9.277,8.301,27.832,20.020
1621557625.771,63.965,12.695,3.418,33.691,51.758
1621557625.775,47.852,13.672,2.930,25.879,78.613
1621557625.779,38.574,16.602,3.906,14.160,44.922
1621557625.783,46.875,9.277,5.371,16.113,-0.977
1621557625.787,49.805,9.277,6.836,17.578,-25.879
1621557625.781,43.457,13.672,4.395,20.996,1.953
1621557625.785,40.039,11.719,1.465,25.879,35.645
1621557625.789,34.668,8.301,6.836,37.598,35.156
1621557625.793,36.133,5.859,9.766,37.598,-1.465
1621557625.797,41.504,5.371,11.230,34.668,33.203
1621557625.801,34.668,10.254,15.137,34.668,37.598
1621557625.805,30.762,7.324,12.695,31.250,5.371
1621557625.808,35.156,1.465,7.324,32.227,-37.598
1621557625.812,35.156,-2.930,7.812,34.668,-21.973
1621557625.816,25.391,-3.418,11.719,38.086,-1.465
1621557625.820,5.371,0.488,11.230,42.480,-10.254
1621557625.824,0.488,3.418,6.836,31.250,53.711
1621557625.838,8.789,1.465,7.324,30.273,69.336
1621557625.842,22.461,0.977,10.742,31.250,55.176
1621557625.846,16.602,1.953,11.230,18.555,50.293
1621557625.850,17.090,-1.465,15.625,23.926,-0.488
1621557625.854,23.438,-1.953,15.625,26.855,0.488
1621557625.858,20.996,0.977,16.113,24.902,26.367
1621557625.862,33.691,1.465,15.625,20.508,11.719
1621557625.865,41.504,-3.906,10.742,17.090,22.461
1621557625.869,27.344,-1.465,10.254,27.344,31.738
1621557625.873,27.832,13.184,10.254,23.926,-7.324
1621557625.877,30.762,16.602,8.789,14.648,0.488
1621557625.881,30.762,10.742,13.184,23.926,69.824
1621557625.876,37.598,13.184,13.672,30.273,9.277
1621557625.880,40.527,12.695,12.207,24.414,-11.719
1621557625.884,49.805,17.090,14.648,25.391,64.941
1621557625.888,50.293,24.414,14.648,32.227,53.711
1621557625.892,44.922,17.578,14.648,34.668,-20.020
1621557625.896,49.316,12.695,19.531,49.316,-23.926
1621557625.900,50.781,13.672,16.602,50.293,22.461
1621557625.903,48.340,7.812,14.648,39.062,60.059
1621557625.907,41.992,2.930,16.113,37.109,47.363
1621557625.911,38.086,4.883,16.113,29.297,26.367
1621557625.915,41.504,4.395,16.602,29.297,38.574
1621557625.919,41.504,-0.488,20.996,38.574,64.453
1621557625.932,22.461,3.418,20.996,38.086,53.223
1621557625.936,9.766,8.789,20.020,40.039,44.434
1621557625.940,20.020,5.859,18.555,45.898,31.250
1621557625.944,13.672,-0.488,15.625,43.457,18.555
1621557625.948,16.113,0.000,16.113,37.109,38.086
1621557625.952,35.156,2.930,14.160,33.203,43.945
1621557625.956,33.691,-0.977,9.277,36.133,52.734
1621557625.959,25.391,2.930,12.207,37.109,28.320
1621557625.963,34.180,9.277,16.602,27.344,40.039
1621557625.967,40.039,3.906,15.625,26.855,81.055
1621557625.971,39.551,1.953,15.137,26.855,6.348
1621557625.975,46.875,4.395,16.602,33.203,-19.043
1621557625.969,49.805,9.277,14.648,36.133,29.785
1621557625.973,42.480,9.766,13.184,22.461,7.324
1621557625.977,37.598,7.812,13.672,23.438,-20.508
1621557625.981,44.434,11.230,10.254,32.227,43.457
1621557625.985,42.480,13.184,6.348,27.344,52.246
1621557625.989,36.133,5.859,6.348,20.020,-16.602
1621557625.993,34.668,3.906,11.719,27.344,9.277
1621557625.996,31.250,6.348,14.648,33.203,43.945
1621557626.000,25.391,5.371,16.113,34.668,4.883
1621557626.004,24.414,5.859,17.578,31.250,16.113
1621557626.008,18.555,4.883,15.625,28.320,35.645
1621557626.012,33.203,7.324,13.672,21.973,24.902
1621557626.025,27.344,9.766,13.184,22.461,43.945
1621557626.029,15.625,7.324,15.137,30.762,28.320
1621557626.033,22.949,5.859,17.090,34.180,-29.297
1621557626.037,20.996,9.277,15.137,40.039,5.859
1621557626.041,19.531,5.371,13.672,44.434,64.941
1621557626.045,24.414,1.953,15.625,40.039,56.152
1621557626.049,23.438,3.418,18.066,35.156,40.039
1621557626.052,28.320,4.395,15.625,37.598,51.758
1621557626.056,34.180,0.488,17.578,34.180,26.367
1621557626.060,36.133,-1.465,20.996,28.809,30.273
1621557626.064,32.715,-5.371,23.926,28.320,69.336
1621557626.068,21.973,-5.371,28.320,33.203,48.340
1621557626.063,24.414,1.953,28.809,32.715,-5.859
1621557626.067,37.109,8.301,29.785,36.621,18.555
1621557626.071,32.227,8.789,30.273,34.668,73.730
1621557626.075,30.273,5.859,26.855,35.156,23.926
1621557626.079,43.945,11.719,22.949,36.621,-23.926
1621557626.083,47.852,10.742,20.508,39.062,0.977
1621557626.087,46.387,5.859,19.043,38.574,49.316
1621557626.090,53.223,7.324,21.973,39.062,12.695
1621557626.094,57.129,5.859,24.414,46.387,18.555
1621557626.098,53.711,7.812,22.461,40.527,1.953
1621557626.102,48.340,9.766,21.973,39.062,-27.832
1621557626.106,41.992,8.789,23.438,41.016,-6.836
1621557626.119,45.410,6.348,25.391,39.551,0.000
1621557626.123,49.805,3.906,27.344,39.551,5.371
1621557626.127,54.688,4.395,26.855,41.016,2.930
1621557626.131,47.363,8.301,28.809,42.969,22.949
1621557626.135,24.902,6.348,29.785,44.434,23.438
1621557626.139,33.203,8.301,28.809,48.340,15.137
1621557626.143,44.922,7.812,30.762,48.828,39.551
1621557626.146,33.203,2.930,28.809,37.598,-23.926
1621557626.150,22.461,6.836,26.367,42.480,-7.812
1621557626.154,36.133,11.230,28.320,51.758,21.973
1621557626.158,48.828,23.438,25.879,42.969,-7.812
1621557626.162,44.434,24.414,21.973,41.504,41.992
1621557626.157,24.414,11.719,19.531,40.039,112.305
1621557626.161,21.484,14.648,22.461,33.203,32.715
1621557626.165,30.273,17.090,23.926,31.250,-9.277
1621557626.169,26.367,15.625,23.926,33.691,75.684
1621557626.173,27.344,17.578,24.414,32.227,83.496
1621557626.177,39.551,12.207,25.391,40.039,-5.859
1621557626.181,44.434,4.395,25.879,41.016,-32.227
1621557626.184,34.180,6.348,20.020,28.809,-9.766
1621557626.188,37.598,13.184,18.555,28.809,-13.672
1621557626.192,48.828,13.184,20.996,40.527,40.039
1621557626.196,52.246,11.230,20.020,46.875,81.055
1621557626.200,43.457,12.695,20.508,43.457,36.133
1621557626.213,39.551,14.160,22.461,37.109,17.578
1621557626.217,35.156,16.602,18.066,36.621,24.902
1621557626.221,45.410,13.672,19.043,35.645,43.457
1621557626.225,50.293,10.254,24.414,31.250,74.707
1621557626.229,44.434,10.742,24.414,34.180,36.133
1621557626.233,43.945,8.789,25.391,38.086,-41.016
1621557626.237,45.898,13.184,26.855,41.992,-14.160
1621557626.240,44.922,20.508,26.855,41.016,26.855
1621557626.244,44.434,20.996,24.902,29.785,32.715
1621557626.248,41.016,19.043,22.461,35.645,63.965
1621557626.252,40.527,19.531,19.531,35.156,47.852
1621557626.256,43.457,21.973,18.555,30.762,62.012
1621557626.252,28.320,20.020,20.020,31.250,85.449
1621557626.256,21.484,15.137,17.578,28.809,28.809
1621557626.260,33.203,14.160,17.578,29.297,-3.906
1621557626.264,31.250,14.160,17.578,32.227,8.789
1621557626.268,33.203,18.066,15.625,26.855,13.184
1621557626.272,38.574,18.066,17.578,22.461,83.984
1621557626.276,35.645,17.578,15.137,35.645,55.176
1621557626.279,41.016,20.020,15.625,36.133,12.695
1621557626.283,36.133,17.090,22.461,32.227,-9.277
1621557626.287,16.602,17.578,20.508,29.785,-18.555
1621557626.291,20.508,15.137,17.090,22.949,21.973
1621557626.295,30.762,13.672,18.066,20.996,30.273
1621557626.306,24.902,13.672,20.020,23.926,103.516
1621557626.310,30.762,10.254,20.508,22.949,71.289
1621557626.314,32.715,15.625,18.066,14.648,20.508
1621557626.318,15.625,20.508,18.066,19.043,6.348
1621557626.322,24.414,18.066,19.531,27.344,20.020
1621557626.326,35.156,15.625,19.531,25.391,30.273
1621557626.330,41.504,14.160,18.066,29.297,13.672
1621557626.333,46.875,18.555,14.160,27.344,17.090
1621557626.337,40.527,22.461,12.695,24.414,-3.418
1621557626.341,38.574,21.973,14.160,22.949,5.859
1621557626.345,41.992,19.043,18.555,21.973,21.484
1621557626.349,49.805,19.043,21.973,27.832,11.230
1621557626.344,34.668,17.090,23.926,34.668,51.758
1621557626.348,13.672,22.461,24.414,41.016,30.762
1621557626.352,20.996,19.531,23.926,38.574,17.090
1621557626.356,28.809,14.648,22.461,36.621,55.176
1621557626.360,24.902,21.484,21.973,38.574,31.250
1621557626.364,23.926,25.879,22.949,33.203,-0.488
1621557626.368,25.879,26.367,22.949,31.738,-23.438
1621557626.371,25.879,25.879,20.996,37.109,37.109
1621557626.375,39.062,23.926,19.531,41.504,33.691
1621557626.379,42.969,19.043,22.461,43.457,3.418
1621557626.383,40.527,20.508,19.531,43.945,67.871
1621557626.387,40.039,20.996,18.555,31.738,56.641
1621557626.400,33.203,20.020,19.043,24.414,31.250
1621557626.404,28.320,19.531,19.043,27.344,50.781
1621557626.408,37.598,17.090,20.508,23.926,11.230
1621557626.412,37.109,12.207,19.531,23.438,36.621
1621557626.416,36.621,15.625,22.949,33.203,86.914
1621557626.420,45.410,23.438,23.926,32.715,102.539
1621557626.424,36.621,22.461,19.043,23.438,47.852
1621557626.427,39.551,21.973,18.555,22.949,44.922
1621557626.431,41.016,15.625,19.531,24.902,62.500
1621557626.435,33.691,12.695,20.020,31.738,18.555
1621557626.439,30.273,17.090,23.438,35.156,10.742
1621557626.443,27.344,19.531,20.996,29.297,1.465
1621557626.438,27.344,18.555,20.020,30.762,12.207
1621557626.442,32.715,17.090,24.414,27.832,69.336
1621557626.446,37.109,19.531,24.902,30.273,45.410
1621557626.450,33.691,21.484,22.461,31.250,-9.766
1621557626.454,22.461,13.672,24.902,39.551,-20.508
1621557626.458,25.879,11.230,26.367,40.527,-14.160
1621557626.462,28.809,15.625,23.926,38.086,13.184
1621557626.465,24.414,13.184,25.391,43.945,9.277
1621557626.469,34.668,16.602,26.367,34.180,32.227
1621557626.473,31.738,23.926,23.926,27.832,37.598
1621557626.477,40.527,20.508,26.855,38.086,5.859
1621557626.481,47.852,19.531,30.762,36.621,27.832
1621557626.495,38.086,20.020,29.785,22.949,69.824
1621557626.499,31.250,20.508,27.344,15.137,0.000
1621557626.503,35.645,20.996,25.879,15.137,0.000
1621557626.507,28.809,22.949,25.391,20.996,88.379
1621557626.511,21.484,23.438,26.855,27.344,73.730
1621557626.515,20.996,18.066,26.367,25.391,57.129
1621557626.519,19.531,21.973,22.461,22.949,66.406
1621557626.522,27.832,21.484,25.391,32.227,24.902
1621557626.526,34.668,11.230,27.832,39.062,47.852
1621557626.530,38.086,15.625,26.367,35.645,50.293
1621557626.534,40.527,20.996,27.832,38.574,-17.578
1621557626.538,49.316,22.461,26.855,38.086,13.184
1621557626.531,43.945,25.391,26.855,28.320,57.617
1621557626.535,41.016,25.391,27.344,24.414,27.832
1621557626.539,48.828,24.902,30.273,25.391,24.902
1621557626.543,49.316,22.461,28.809,20.996,7.812
1621557626.547,41.992,22.949,25.879,22.461,8.789
1621557626.551,31.250,24.414,25.391,25.391,53.223
1621557626.555,29.785,20.020,20.996,24.414,4.883
1621557626.558,27.832,17.578,23.926,29.297,20.020
1621557626.562,31.738,17.090,29.297,32.715,57.617
1621557626.566,46.387,15.625,28.320,25.879,25.391
1621557626.570,48.340,13.184,28.320,21.484,3.906
1621557626.574,32.227,22.949,30.762,21.484,12.695
1621557626.587,37.598,26.855,29.297,28.320,32.227
1621557626.591,24.414,16.113,27.832,36.133,4.395
1621557626.595,5.371,14.160,24.902,33.691,-11.719
1621557626.599,17.578,13.184,24.414,28.320,-4.883
1621557626.603,28.809,17.090,28.320,32.227,21.973
1621557626.607,32.227,21.973,25.391,33.691,63.965
1621557626.611,22.949,21.484,25.391,29.297,41.504
1621557626.614,20.020,18.555,30.273,34.668,-9.277
1621557626.618,33.691,14.160,27.344,37.109,16.602
1621557626.622,45.410,13.672,23.926,35.156,38.086
1621557626.626,33.203,15.137,26.855,35.156,39.551
1621557626.630,28.320,16.602,29.785,37.109,47.852
1621557626.625,38.086,17.578,32.227,43.945,-8.301
1621557626.629,42.969,19.531,33.203,37.109,-26.855
1621557626.633,44.922,20.020,32.715,32.715,-11.719
1621557626.637,38.574,18.066,34.180,29.297,-30.762
1621557626.641,29.297,24.902,29.785,22.949,-47.852
1621557626.645,40.039,19.043,31.738,36.133,12.695
1621557626.649,54.688,15.625,32.715,39.062,44.922
1621557626.652,51.758,28.320,29.785,33.203,-19.043
1621557626.656,50.781,28.320,26.367,34.180,10.254
1621557626.660,57.129,19.531,22.949,40.039,66.406
1621557626.664,47.363,13.184,21.484,41.992,53.711
1621557626.668,41.016,19.043,20.020,31.738,45.410
1621557626.700,37.109,25.879,25.391,21.973,11.230
1621557626.704,36.133,22.949,27.832,27.344,-49.805
1621557626.708,35.645,23.926,24.902,30.762,-54.199
1621557626.712,34.668,24.902,27.344,27.832,-16.113
1621557626.716,37.598,24.902,30.762,34.668,16.113
1621557626.720,34.180,20.508,25.879,40.039,9.766
1621557626.724,34.668,19.043,25.391,39.062,6.836
1621557626.727,31.250,22.949,27.832,35.156,40.527
1621557626.731,28.320,21.973,24.902,35.156,35.645
1621557626.735,33.203,20.996,23.926,33.691,8.301
1621557626.739,24.414,24.902,22.461,25.879,14.648
1621557626.743,20.020,24.414,27.344,34.668,20.020
1621557626.720,29.297,23.438,30.762,33.691,29.297
1621557626.724,33.691,25.391,32.227,34.668,7.812
1621557626.728,36.621,26.367,36.133,42.969,23.438
1621557626.732,42.480,38.086,33.203,30.762,51.758
1621557626.736,51.270,33.691,33.203,32.227,69.824
1621557626.740,45.898,24.902,35.645,35.645,27.832
1621557626.744,22.949,24.902,32.715,41.504,32.227
1621557626.747,36.621,24.902,33.691,52.246,49.316
1621557626.751,37.109,29.785,31.738,39.551,-6.348
1621557626.755,20.508,25.391,28.809,34.668,4.395
1621557626.759,30.762,25.391,28.320,41.504,29.785
1621557626.763,39.551,25.391,27.832,39.062,56.152
1621557626.776,43.945,23.438,27.344,40.527,29.297
1621557626.780,45.898,23.438,28.809,41.016,57.129
1621557626.784,27.344,23.926,32.715,33.691,60.547
1621557626.788,28.809,24.414,32.715,40.527,55.176
1621557626.792,51.758,22.461,36.621,47.852,27.832
1621557626.796,41.504,20.996,40.039,47.852,44.434
1621557626.800,30.273,18.066,41.504,44.434,86.426
1621557626.803,37.598,18.066,40.527,43.945,40.527
1621557626.807,43.457,20.508,39.551,48.828,35.156
1621557626.811,45.410,19.043,40.039,50.293,35.156
1621557626.815,44.922,23.438,37.109,35.156,14.648
1621557626.819,40.039,25.879,36.621,28.320,2.441
1621557626.812,26.367,22.461,35.156,33.203,45.898
1621557626.816,27.832,27.344,31.250,32.715,44.922
1621557626.820,41.992,24.902,31.250,33.203,54.199
1621557626.824,40.527,13.672,35.645,39.551,31.738
1621557626.828,33.691,20.508,38.574,48.828,3.906
1621557626.832,35.645,32.227,36.133,42.969,40.039
1621557626.836,37.109,28.809,31.738,33.203,0.977
1621557626.839,34.668,29.785,33.203,35.645,38.574
1621557626.843,24.414,31.738,37.109,41.016,105.957
1621557626.847,24.902,26.367,38.574,41.016,27.344
1621557626.851,30.762,28.809,37.109,30.762,13.184
1621557626.855,32.715,25.879,36.133,19.531,35.645
1621557626.869,29.785,20.996,38.086,24.414,60.059
1621557626.873,23.926,20.996,36.621,28.809,19.531
1621557626.877,12.695,18.066,35.645,31.738,34.180
1621557626.881,12.695,19.531,32.227,29.297,77.637
1621557626.885,26.367,23.438,31.250,31.738,31.738
1621557626.889,27.344,23.438,33.203,32.715,41.016
1621557626.893,37.109,24.414,35.645,36.133,14.160
1621557626.896,40.039,24.414,39.062,38.086,-47.852
1621557626.900,32.715,22.461,36.621,36.133,32.227
1621557626.904,34.668,17.578,34.668,41.504,73.730
1621557626.908,32.227,13.672,35.156,43.945,44.434
1621557626.912,32.715,13.672,36.133,35.645,15.137
1621557626.906,43.457,17.090,33.203,32.227,32.227
1621557626.910,43.945,18.555,31.738,39.062,32.715
1621557626.914,44.434,18.555,31.738,43.457,42.480
1621557626.918,46.387,22.949,27.832,42.969,19.531
1621557626.922,45.898,24.414,26.855,37.109,-22.949
1621557626.926,51.270,23.438,28.809,35.645,43.457
1621557626.930,50.781,22.949,33.691,41.992,67.871
1621557626.933,35.645,22.949,37.598,38.086,4.883
1621557626.937,29.785,20.020,37.109,33.203,10.254
1621557626.941,25.879,18.555,35.156,31.738,76.660
1621557626.945,23.438,18.555,35.645,36.133,50.781
1621557626.949,20.508,17.090,38.086,39.551,56.641
1621557626.962,25.391,16.602,33.691,29.297,32.227
1621557626.966,26.367,21.484,30.273,26.367,-15.625
1621557626.970,31.738,22.461,33.203,31.250,23.926
1621557626.974,29.785,16.602,35.645,34.668,10.254
1621557626.978,19.531,16.602,37.109,31.738,-10.742
1621557626.982,30.762,17.578,34.668,24.414,0.000
1621557626.986,40.527,20.508,33.203,33.203,0.000
1621557626.989,41.992,24.414,29.785,38.086,65.430
1621557626.993,32.715,20.508,24.902,32.227,51.758
1621557626.997,26.367,20.996,25.879,30.273,16.602
1621557627.001,36.133,21.973,27.344,29.297,32.227
1621557627.005,41.504,16.113,29.297,24.902,3.906
1621557627.001,36.621,13.672,29.297,20.996,-49.805
1621557627.005,41.016,15.137,29.785,22.461,-76.660
1621557627.009,39.062,15.625,31.738,30.762,-28.809
1621557627.013,38.574,20.996,32.715,32.715,-3.418
1621557627.017,35.156,22.461,32.227,34.668,2.930
1621557627.021,28.809,20.996,29.297,33.691,32.227
1621557627.025,29.785,21.484,28.320,31.250,61.523
1621557627.028,39.062,14.160,27.344,41.504,71.777
1621557627.032,50.293,19.531,27.344,39.551,45.410
1621557627.036,36.621,26.855,27.832,35.645,28.809
1621557627.040,18.555,26.855,23.926,40.039,17.090
1621557627.044,30.762,28.809,22.949,41.016,-20.020
1621557627.057,37.598,30.762,24.902,31.738,5.859
1621557627.061,30.273,26.367,24.414,25.391,63.965
1621557627.065,32.227,23.926,26.367,28.809,0.000
1621557627.069,46.875,26.855,28.809,22.461,28.320
1621557627.073,57.129,27.832,30.273,27.832,99.609
1621557627.077,39.551,26.855,31.738,33.203,38.574
1621557627.081,18.555,27.832,31.738,27.832,28.320
1621557627.084,22.949,28.320,26.367,22.461,16.602
1621557627.088,34.180,29.297,24.902,20.508,-20.020
1621557627.092,39.551,25.879,28.320,21.484,7.812
1621557627.096,35.645,23.926,22.461,16.113,39.551
1621557627.100,22.461,23.926,20.996,30.762,35.156
1621557627.094,26.367,23.438,24.902,41.992,17.090
1621557627.098,38.086,23.438,23.926,33.203,20.020
1621557627.102,33.203,24.902,25.879,26.855,36.133
1621557627.106,21.973,20.996,27.344,32.715,55.176
1621557627.110,21.973,17.578,25.879,36.621,45.898
1621557627.114,25.391,17.090,26.367,34.180,8.301
1621557627.118,25.879,20.996,29.297,39.551,13.184
1621557627.121,22.461,26.855,25.391,37.109,44.434
1621557627.125,19.531,26.367,28.320,35.645,28.809
1621557627.129,32.715,22.949,35.645,44.922,33.691
1621557627.133,36.621,21.484,35.156,42.480,30.273
1621557627.137,33.203,17.090,36.133,35.645,-11.719
1621557627.150,13.672,16.113,36.621,33.691,-66.406
1621557627.154,14.648,28.320,31.250,32.715,-18.066
1621557627.158,30.273,30.273,32.227,32.715,8.789
1621557627.162,26.367,28.320,37.109,23.438,-17.578
1621557627.166,27.344,28.320,33.203,22.461,23.438
1621557627.170,35.156,31.738,32.715,28.320,75.684
1621557627.174,41.992,35.156,36.133,24.414,45.410
1621557627.177,50.293,34.668,31.738,17.578,4.883
1621557627.181,51.758,36.621,29.785,16.113,59.082
1621557627.185,41.016,32.715,33.203,27.832,70.801
1621557627.189,34.668,38.574,33.203,24.414,27.344
1621557627.193,33.691,40.039,31.738,18.555,-15.625
1621557627.188,37.109,30.273,32.227,22.461,20.020
1621557627.192,35.645,31.738,30.762,19.043,53.223
1621557627.196,29.785,27.832,30.762,24.902,17.090
1621557627.200,22.949,27.832,32.715,29.297,42.969
1621557627.204,19.531,27.344,31.738,24.414,-15.137
1621557627.208,33.203,22.461,33.691,29.297,7.812
1621557627.212,38.574,31.250,37.598,40.039,80.566
1621557627.215,37.109,34.180,35.156,43.457,90.332
1621557627.219,34.180,30.762,36.133,41.016,104.492
1621557627.223,28.320,30.762,37.598,45.410,24.902
1621557627.227,26.367,27.344,37.598,45.410,17.578
1621557627.231,16.602,23.926,41.504,42.969,14.648
1621557627.244,17.090,21.973,42.480,43.945,-29.297
1621557627.248,24.902,22.461,41.016,44.434,24.414
1621557627.252,20.508,24.414,41.016,48.340,39.062
1621557627.256,22.461,23.926,40.527,45.410,48.828
1621557627.260,22.949,23.438,39.551,34.668,69.336
1621557627.264,19.043,26.367,40.039,32.227,34.668
1621557627.268,27.344,27.344,39.062,29.297,26.367
1621557627.271,42.480,25.879,34.668,26.855,80.078
1621557627.275,46.875,27.832,32.227,24.902,27.832
1621557627.279,40.039,36.133,32.715,15.625,-9.766
1621557627.283,39.551,38.086,32.715,19.043,31.250
1621557627.287,48.828,32.227,31.250,27.344,17.090
1621557627.282,53.223,35.156,31.250,30.273,38.086
1621557627.286,53.711,35.645,32.227,30.273,34.668
1621557627.290,55.176,34.180,31.250,25.391,56.641
1621557627.294,48.340,35.645,30.762,27.344,66.406
1621557627.298,35.156,32.227,30.762,31.250,10.254
1621557627.302,41.016,25.391,32.227,36.133,-18.555
1621557627.306,41.016,25.879,33.203,35.645,0.488
1621557627.309,39.551,26.855,31.738,34.180,61.523
1621557627.313,44.922,24.414,29.785,30.273,35.645
1621557627.317,36.133,21.973,37.109,34.180,-12.207
1621557627.321,29.785,23.438,40.039,36.133,5.859
1621557627.325,33.203,29.785,36.133,31.738,33.203
1621557627.338,29.785,30.273,34.668,27.832,34.180
1621557627.342,17.090,26.855,35.645,29.785,7.324
1621557627.346,24.902,24.902,38.086,30.273,-3.906
1621557627.350,30.762,24.414,37.109,30.762,4.395
1621557627.354,25.879,23.926,40.039,43.457,32.227
1621557627.358,30.273,23.926,42.480,44.922,-8.789
1621557627.362,25.391,22.461,40.527,32.227,16.113
1621557627.365,15.625,19.043,37.109,32.227,57.617
1621557627.369,17.090,20.996,34.180,32.715,27.832
1621557627.373,20.020,20.996,30.273,28.320,21.973
1621557627.377,30.762,21.484,31.250,31.738,2.441
1621557627.381,39.062,23.926,34.668,26.855,37.598
1621557627.394,31.250,25.879,33.691,27.344,114.746
1621557627.398,30.273,31.250,32.227,32.227,52.734
1621557627.402,34.668,31.738,34.668,30.273,60.547
1621557627.406,38.086,27.344,34.180,23.926,28.809
1621557627.410,37.598,29.297,34.180,30.273,0.977
1621557627.414,41.016,36.621,35.156,43.945,-5.371
1621557627.418,42.969,34.180,35.156,39.062,-23.438
1621557627.421,35.645,33.691,33.691,33.691,20.508
1621557627.425,39.551,32.715,33.203,37.598,29.297
1621557627.429,36.133,29.297,34.668,37.598,39.551
1621557627.433,46.875,25.879,33.691,35.645,46.875
1621557627.437,57.617,26.367,30.273,36.133,-4.883
1621557627.432,42.480,29.785,28.320,34.180,-4.883
1621557627.436,30.273,28.320,28.809,36.133,31.738
1621557627.440,25.391,28.320,26.855,41.992,19.043
1621557627.444,23.926,34.180,25.879,39.062,1.465
1621557627.448,14.648,35.645,28.320,37.109,-20.020
1621557627.452,15.137,34.668,25.879,41.504,13.672
1621557627.456,21.484,39.062,24.414,39.551,61.035
1621557627.459,29.785,35.645,29.785,36.621,38.086
1621557627.463,29.297,28.809,31.250,29.297,55.664
1621557627.467,25.879,30.273,27.832,25.391,74.707
1621557627.471,34.180,27.832,27.832,25.879,71.777
1621557627.475,29.297,24.414,29.785,23.926,22.461
1621557627.470,28.320,28.320,31.250,24.414,8.789
1621557627.474,27.832,31.738,31.250,23.926,12.207
1621557627.478,11.230,26.367,30.273,29.297,-1.465
1621557627.482,20.020,21.973,30.273,38.574,-55.664
1621557627.486,37.598,25.391,27.344,33.203,-41.016
1621557627.490,42.480,26.367,25.879,29.297,3.906
1621557627.494,36.133,33.203,23.926,34.668,43.945
1621557627.497,35.645,38.574,20.996,30.762,45.410
1621557627.501,44.434,33.691,22.461,27.344,4.883
1621557627.505,35.645,37.109,25.391,28.320,25.879
1621557627.509,29.297,37.598,26.367,26.367,11.719
1621557627.513,41.992,30.273,25.879,32.715,3.418
1621557627.525,36.621,30.273,28.320,37.598,78.125
1621557627.529,30.273,33.691,32.227,37.598,67.383
1621557627.533,37.109,33.691,32.715,34.668,37.598
1621557627.537,36.133,32.715,29.297,37.109,71.777
1621557627.541,28.320,27.344,30.273,45.898,57.617
1621557627.545,26.367,24.902,32.227,40.527,66.895
1621557627.549,30.762,29.785,28.320,36.133,14.648
1621557627.552,35.645,33.691,25.391,41.504,-25.391
1621557627.556,38.574,34.180,26.855,38.086,24.902
1621557627.560,42.480,31.250,27.832,32.715,40.527
1621557627.564,30.762,31.250,26.367,30.762,-12.695
1621557627.568,23.438,31.738,30.273,27.832,-41.504
1621557627.564,33.691,30.273,33.203,34.668,13.184
1621557627.568,33.691,27.832,30.762,37.109,33.691
1621557627.572,32.715,24.414,29.297,28.320,-2.930
1621557627.576,30.273,27.832,29.297,27.832,66.895
1621557627.580,38.574,22.461,27.344,34.180,68.359
1621557627.584,36.133,15.137,26.367,36.621,-7.812
1621557627.588,27.344,24.902,26.855,31.738,31.738
1621557627.591,41.504,23.438,27.832,31.250,47.363
1621557627.595,36.621,18.555,32.715,33.203,4.883
1621557627.599,25.879,26.855,29.785,30.762,24.414
1621557627.603,35.156,27.344,25.879,29.297,78.125
1621557627.607,27.832,23.926,27.832,24.414,45.410
1621557627.620,35.645,25.391,26.367,31.738,64.941
1621557627.624,41.504,26.367,25.879,38.574,53.711
1621557627.628,38.086,28.809,26.855,29.785,-31.250
1621557627.632,42.969,31.738,25.879,30.273,-8.789
1621557627.636,45.898,26.367,25.391,36.133,35.645
1621557627.640,48.340,22.949,24.414,31.250,44.922
1621557627.644,34.668,25.879,26.855,27.832,29.785
1621557627.647,18.066,21.973,26.855,35.156,86.426
1621557627.651,22.461,23.926,22.461,39.062,112.305
1621557627.655,38.086,26.855,21.484,41.992,44.434
1621557627.659,43.945,26.367,23.926,37.598,53.711
1621557627.663,39.062,27.832,24.902,26.855,106.934
1621557627.656,28.809,27.344,22.949,27.832,67.871
1621557627.660,27.832,23.926,23.926,31.738,17.578
1621557627.664,35.645,16.602,25.391,30.273,36.133
1621557627.668,28.320,15.137,26.367,34.668,21.973
1621557627.672,18.555,19.043,28.809,39.062,30.762
1621557627.676,20.020,20.508,31.738,35.645,61.523
1621557627.680,30.273,21.484,29.785,40.039,38.574
1621557627.683,32.227,23.438,29.297,37.109,59.570
1621557627.687,23.926,24.902,30.273,31.738,52.246
1621557627.691,27.832,22.949,28.320,34.668,24.414
1621557627.695,42.480,23.438,28.320,38.574,11.230
1621557627.699,37.109,25.391,26.855,42.969,-4.395
1621557627.712,22.461,22.949,27.344,36.621,11.230
1621557627.716,23.926,22.461,25.879,33.203,-8.301
1621557627.720,28.809,27.344,22.949,31.738,-3.906
1621557627.724,28.320,30.762,24.414,29.297,26.855
1621557627.728,28.320,30.762,30.762,32.227,17.578
1621557627.732,36.621,29.785,30.762,25.391,83.984
1621557627.736,41.504,27.832,28.809,18.066,106.934
1621557627.739,32.715,29.785,26.855,26.367,13.672
1621557627.743,23.438,31.738,24.414,23.926,20.996
1621557627.747,32.227,32.715,24.902,11.230,84.473
1621557627.751,35.156,32.715,26.367,16.113,64.941
1621557627.755,40.527,31.250,26.855,26.367,16.113
1621557627.750,46.875,31.250,27.344,31.250,-2.441
1621557627.754,43.457,33.203,28.320,29.297,15.137
1621557627.758,40.039,29.785,24.414,28.320,77.148
1621557627.762,35.645,24.902,25.391,31.738,37.598
1621557627.766,27.832,25.879,27.832,31.250,-52.246
1621557627.770,24.902,30.273,30.762,34.668,10.742
1621557627.774,21.484,23.926,33.203,36.133,50.293
1621557627.777,21.484,19.531,30.762,40.039,49.805
1621557627.781,30.762,21.484,30.762,39.551,56.152
1621557627.785,39.062,29.785,32.227,36.133,3.418
1621557627.789,35.156,28.320,31.250,39.062,-9.766
1621557627.793,34.180,19.531,28.809,43.945,3.906
1621557627.806,45.410,21.973,28.809,43.945,39.062
1621557627.810,42.480,24.902,28.320,32.715,59.082
1621557627.814,35.645,25.391,28.320,26.367,37.109
1621557627.818,38.574,19.531,30.762,33.203,26.367
1621557627.822,33.691,20.508,31.738,46.387,18.066
1621557627.826,33.691,22.461,30.762,53.711,16.602
1621557627.830,28.809,22.461,30.273,42.969,34.668
1621557627.833,19.531,25.391,33.203,36.621,43.457
1621557627.837,31.250,27.832,34.180,30.762,36.621
1621557627.841,34.180,27.832,33.691,22.461,61.523
1621557627.845,34.180,24.414,30.273,16.602,49.316
1621557627.849,46.875,24.414,30.273,19.043,-16.113
1621557627.845,39.062,29.297,30.273,22.461,24.414
1621557627.849,37.109,27.344,28.320,23.438,67.383
1621557627.853,44.434,24.902,28.320,26.367,2.441
1621557627.857,40.039,27.832,25.879,25.879,-37.598
1621557627.861,42.480,27.344,26.855,29.785,-63.477
1621557627.865,41.016,24.902,24.902,32.227,-24.414
1621557627.869,37.598,24.414,21.973,34.668,-41.504
1621557627.872,37.598,21.973,23.926,38.086,-34.180
1621557627.876,33.203,19.531,26.367,36.621,-21.973
1621557627.880,41.016,20.996,24.414,32.227,-29.297
1621557627.884,42.969,23.926,23.926,34.668,41.504
1621557627.888,30.273,21.973,27.832,42.480,36.621
1621557627.901,34.180,20.020,26.855,39.062,29.785
1621557627.905,34.668,20.020,26.367,41.992,43.945
1621557627.909,31.250,20.020,27.344,44.922,41.992
1621557627.913,41.016,21.973,26.855,37.109,23.926
1621557627.917,55.176,24.414,25.391,33.691,7.324
1621557627.921,66.406,27.832,26.855,34.180,41.504
1621557627.925,47.852,25.391,27.832,38.086,58.594
1621557627.928,25.391,20.996,25.879,39.551,36.133
1621557627.932,30.273,16.113,25.879,39.551,6.348
1621557627.936,26.855,16.113,27.344,42.480,11.230
1621557627.940,14.160,16.113,30.762,41.016,24.902
1621557627.944,19.531,13.184,31.738,37.109,28.320
1621557627.937,34.180,15.137,33.203,34.180,-23.926
1621557627.941,29.785,16.113,33.691,39.062,19.531
1621557627.945,27.344,18.066,32.715,34.668,67.383
1621557627.949,35.156,18.555,32.227,26.367,-9.766
1621557627.953,35.645,19.043,29.297,27.344,15.137
1621557627.957,38.574,23.438,28.320,31.250,48.828
1621557627.961,34.668,25.391,26.855,30.273,20.020
1621557627.964,37.109,21.484,27.832,33.691,35.156
1621557627.968,42.969,20.508,30.762,34.180,31.250
1621557627.972,41.016,25.879,30.762,32.715,40.039
1621557627.976,42.480,27.344,32.227,40.527,49.805
1621557627.980,50.781,27.344,33.691,43.457,42.480
1621557627.994,53.223,29.297,31.738,36.133,36.133
1621557627.998,47.363,27.832,28.320,32.227,35.156
1621557628.002,41.992,24.414,29.785,42.480,46.387
1621557628.006,40.527,20.020,31.738,43.945,32.715
1621557628.010,37.109,23.438,30.273,39.551,18.555
1621557628.014,29.785,29.785,27.344,33.691,18.555
1621557628.018,25.391,24.902,27.344,33.203,29.785
1621557628.021,28.320,21.484,28.320,44.922,50.293
1621557628.025,30.762,20.996,27.344,45.898,47.852
1621557628.029,36.133,18.555,30.762,46.875,37.109
1621557628.033,40.039,20.508,29.297,44.434,20.508
1621557628.037,35.645,16.602,28.320,45.410,13.184
1621557628.031,35.156,15.625,29.297,47.852,53.711
1621557628.035,32.227,21.973,30.762,38.086,43.945
1621557628.039,30.273,27.344,30.273,36.621,36.133
1621557628.043,36.621,26.855,29.785,34.180,36.621
1621557628.047,17.578,20.508,32.227,32.227,16.113
1621557628.051,9.277,20.996,31.738,25.879,-8.301
1621557628.055,23.438,20.020,33.203,20.996,-31.738
1621557628.058,32.227,20.020,33.203,22.461,-28.809
1621557628.062,41.992,19.043,30.273,26.367,3.906
1621557628.066,49.805,21.973,27.832,15.625,12.695
1621557628.070,32.227,23.926,27.832,6.348,18.066
1621557628.074,28.809,21.973,24.414,10.742,2.441
1621557628.087,40.039,21.973,21.973,14.648,55.664
1621557628.091,34.180,23.926,25.879,19.043,26.855
1621557628.095,34.180,17.090,24.414,18.555,34.668
1621557628.099,38.574,16.113,21.484,26.367,81.055
1621557628.103,41.504,22.461,23.926,28.320,4.883
1621557628.107,41.016,18.555,27.832,31.250,-7.324
1621557628.111,34.668,17.090,28.809,38.574,-3.906
1621557628.114,24.902,15.625,29.785,41.016,-15.137
1621557628.118,23.438,15.625,33.691,39.062,67.383
1621557628.122,31.738,16.113,34.668,43.457,88.379
1621557628.126,25.879,13.184,34.668,49.805,84.961
1621557628.130,20.508,15.625,32.715,37.598,43.945
1621557628.127,25.879,14.648,29.785,33.691,8.301
1621557628.131,20.996,13.672,31.250,39.062,15.625
1621557628.135,18.066,15.137,30.762,34.180,6.348
1621557628.139,27.344,10.254,30.762,27.832,48.340
1621557628.143,32.715,8.301,31.738,27.832,38.086
1621557628.147,19.043,10.254,30.762,26.367,35.156
1621557628.151,1.953,8.789,32.227,31.250,15.137
1621557628.154,-1.953,7.812,32.227,18.066,-4.395
1621557628.158,21.484,14.160,28.809,2.930,65.918
1621557628.162,32.227,18.555,28.809,13.184,45.410
1621557628.166,24.902,18.066,27.832,11.230,18.066
1621557628.170,25.391,17.090,25.391,-0.488,33.691
1621557628.182,26.855,15.625,25.879,4.883,56.641
1621557628.186,34.668,15.137,24.414,16.602,63.965
1621557628.190,40.527,16.602,22.949,17.578,19.531
1621557628.194,30.762,18.555,25.391,14.160,33.691
1621557628.198,32.715,18.555,30.762,21.973,-1.465
1621557628.202,43.457,21.484,31.738,30.762,-30.273
1621557628.206,33.203,16.602,34.180,32.227,14.648
1621557628.209,23.438,12.695,36.621,35.645,-30.273
1621557628.213,26.367,19.531,38.574,41.504,-40.527
1621557628.217,22.461,24.414,40.039,39.062,7.324
1621557628.221,19.531,20.020,36.621,35.645,73.730
1621557628.225,21.484,14.160,40.527,38.086,45.898
1621557628.219,17.578,13.184,38.574,31.250,-14.648
1621557628.223,17.578,12.695,32.227,32.227,-1.953
1621557628.227,25.391,8.789,34.668,35.645,2.930
1621557628.231,32.227,7.324,34.668,25.391,32.227
1621557628.235,20.508,11.719,31.738,19.043,43.457
1621557628.239,17.090,13.672,31.250,23.926,33.691
1621557628.243,33.691,15.137,32.715,23.926,-3.418
1621557628.246,26.855,18.555,32.227,20.508,-17.090
1621557628.250,12.695,18.066,31.738,10.742,-14.648
1621557628.254,7.812,20.508,33.691,14.160,-25.879
1621557628.258,18.066,23.438,37.109,22.461,-4.395
1621557628.262,30.762,22.949,36.621,19.043,39.551
1621557628.275,27.832,24.414,34.180,20.020,55.176
1621557628.279,20.996,27.832,34.180,18.066,76.660
1621557628.283,24.414,25.879,38.574,20.020,10.254
1621557628.287,28.320,22.461,39.551,18.066,-9.766
1621557628.291,22.461,21.973,35.645,16.113,31.250
1621557628.295,24.414,18.066,35.645,16.602,-11.230
1621557628.299,24.414,20.996,35.156,10.254,25.879
1621557628.302,26.367,26.855,33.691,17.090,74.707
1621557628.306,33.691,27.344,34.180,31.250,46.387
1621557628.310,23.438,25.879,38.086,35.645,-10.254
1621557628.314,22.949,20.508,41.504,38.574,-31.250
1621557628.318,35.645,21.973,39.551,38.574,-30.762
1621557628.313,35.645,24.414,39.062,43.945,23.438
1621557628.317,34.180,23.926,39.551,51.270,54.199
1621557628.321,34.668,26.367,35.645,49.805,44.434
1621557628.325,20.996,26.367,32.715,42.969,34.668
1621557628.329,8.789,24.414,34.180,39.062,51.758
1621557628.333,8.301,26.367,32.715,36.133,57.129
1621557628.337,7.324,21.484,30.762,28.320,80.078
1621557628.340,7.324,18.555,34.180,19.531,65.430
1621557628.344,15.625,20.020,34.180,23.438,1.465
1621557628.348,16.113,18.066,32.715,42.480,41.504
1621557628.352,11.230,24.902,34.668,37.109,27.344
1621557628.356,11.719,27.832,35.156,18.066,-26.855
1621557628.369,15.137,26.367,32.227,18.555,-1.465
1621557628.373,24.414,25.879,31.250,24.902,7.324
1621557628.377,28.809,26.855,31.738,23.438,3.418
1621557628.381,24.902,33.203,32.227,17.578,35.156
1621557628.385,30.273,34.180,33.691,23.438,65.430
1621557628.389,41.992,28.809,34.180,35.156,14.160
1621557628.393,43.945,24.902,32.715,35.645,9.277
1621557628.396,52.246,27.344,30.273,25.391,75.684
1621557628.400,49.316,29.297,29.297,24.902,54.688
1621557628.404,38.574,28.809,30.762,31.250,11.719
1621557628.408,42.969,26.855,31.250,31.250,26.855
1621557628.412,38.574,25.879,30.762,29.785,42.480
1621557628.407,32.715,31.250,28.320,29.297,43.945
1621557628.411,35.645,29.297,28.320,26.367,62.500
1621557628.415,37.109,28.320,33.691,30.762,41.504
1621557628.419,39.551,28.320,34.180,32.227,24.902
1621557628.423,34.668,26.367,29.785,21.973,24.902
1621557628.427,34.180,26.855,29.785,25.391,6.836
1621557628.431,41.016,26.855,30.273,27.832,9.277
1621557628.434,44.434,25.879,31.250,17.578,8.301
1621557628.438,40.527,27.344,33.691,21.484,40.527
1621557628.442,20.508,24.902,35.645,29.785,35.645
1621557628.446,13.184,23.438,37.109,36.133,-52.734
1621557628.450,25.879,22.461,39.551,47.852,26.367
1621557628.463,17.578,23.438,38.574,41.504,71.289
1621557628.467,15.137,27.344,38.574,41.016,0.000
1621557628.471,36.621,30.273,38.086,41.504,15.625
1621557628.475,23.438,30.762,41.992,41.016,38.086
1621557628.479,17.578,29.785,44.922,36.621,37.109
1621557628.483,27.832,30.273,38.086,27.832,57.129
1621557628.487,32.227,31.738,35.156,30.762,70.801
1621557628.490,36.133,29.785,35.645,33.203,54.199
1621557628.494,39.551,26.855,37.598,23.926,22.949
1621557628.498,41.992,28.320,37.598,19.531,25.391
1621557628.502,37.598,22.949,38.086,26.855,50.293
1621557628.506,25.879,18.555,39.551,29.785,37.109
1621557628.500,22.461,24.414,36.133,25.879,46.875
1621557628.504,35.645,22.461,37.109,23.926,-1.953
1621557628.508,34.668,21.973,39.062,26.367,-8.789
1621557628.512,23.926,29.785,38.574,26.855,89.355
1621557628.516,23.438,25.391,39.551,23.926,76.172
1621557628.520,29.297,16.602,38.574,21.973,11.230
1621557628.524,21.973,18.066,38.086,12.695,-10.254
1621557628.527,17.578,20.020,37.109,17.578,23.438
1621557628.531,19.043,21.484,34.668,22.949,62.012
1621557628.535,20.020,20.508,36.133,21.484,19.043
1621557628.539,23.438,21.484,36.133,21.484,-2.930
1621557628.543,25.879,24.414,33.203,23.438,56.641
1621557628.556,28.809,22.949,36.133,27.832,103.027
1621557628.560,16.113,16.602,36.621,28.809,52.734
1621557628.564,10.254,16.602,34.668,34.180,23.438
1621557628.568,20.508,20.996,36.621,38.574,21.973
1621557628.572,20.508,19.043,31.738,40.527,-8.789
1621557628.576,17.090,16.113,30.273,40.039,42.480
1621557628.580,25.391,18.555,35.156,36.621,23.926
1621557628.583,35.645,20.508,36.621,36.621,38.086
1621557628.587,30.273,20.020,38.086,40.527,62.500
1621557628.591,27.832,22.461,39.062,32.227,8.789
1621557628.595,29.785,20.996,39.551,24.414,-10.742
1621557628.599,26.367,23.438,38.086,27.832,-2.930
1621557628.594,10.742,30.273,33.203,27.832,16.602
1621557628.598,14.648,29.297,33.203,28.320,-21.973
1621557628.602,32.227,27.832,34.668,25.391,-40.039
1621557628.606,34.668,32.715,34.668,23.926,-22.949
1621557628.610,39.551,28.320,35.645,34.668,26.855
1621557628.614,41.016,31.250,34.180,36.621,54.199
1621557628.618,37.598,36.133,33.203,31.738,49.316
1621557628.621,30.273,30.762,36.133,30.762,71.777
1621557628.625,28.809,31.250,40.527,27.832,-21.973
1621557628.629,32.227,29.785,41.016,25.391,-36.133
1621557628.633,31.250,30.762,37.598,27.832,51.270
1621557628.637,34.180,29.297,37.109,35.645,35.645
1621557628.650,35.156,28.320,33.691,40.039,1.953
1621557628.654,35.645,28.809,30.762,28.320,43.457
1621557628.658,40.039,28.809,32.227,26.367,109.375
1621557628.662,42.969,27.832,33.203,31.250,30.762
1621557628.666,45.410,24.902,35.645,32.715,2.441
1621557628.670,40.039,21.484,38.086,38.086,75.195
1621557628.674,30.273,18.555,36.133,33.203,71.777
1621557628.677,27.832,20.508,36.133,34.668,39.551
1621557628.681,20.020,21.484,35.156,35.156,29.297
1621557628.685,8.789,23.438,35.645,33.203,21.973
1621557628.689,12.207,16.113,39.062,36.621,29.297
1621557628.693,14.160,16.113,36.621,33.691,29.785
1621557628.706,10.742,17.090,32.715,37.109,-15.137
1621557628.710,14.648,20.508,35.645,37.109,-2.441
1621557628.714,24.414,19.043,40.527,38.574,24.902
1621557628.718,36.133,14.160,41.504,42.969,3.418
1621557628.722,29.297,18.555,36.621,36.621,-18.066
1621557628.726,25.391,18.555,34.668,35.156,7.324
1621557628.730,35.156,21.484,34.180,41.504,72.754
1621557628.733,36.133,24.902,35.156,36.133,94.238
1621557628.737,39.551,25.391,34.668,31.250,42.480
1621557628.741,39.062,23.926,29.297,32.227,-36.621
1621557628.745,31.738,26.367,28.320,27.832,-44.922
1621557628.749,24.902,30.273,29.785,14.648,-5.371
1621557628.745,28.809,23.926,33.203,18.555,33.203
1621557628.749,31.738,14.648,29.785,23.438,80.078
1621557628.753,34.180,15.625,25.879,25.391,65.430
1621557628.757,40.039,20.020,29.785,28.809,-13.672
1621557628.761,41.016,18.555,28.809,24.902,-8.301
1621557628.765,40.039,18.066,25.879,30.762,36.133
1621557628.769,50.781,22.461,26.855,33.691,-5.859
1621557628.772,57.617,25.391,28.809,33.203,-9.766
1621557628.776,32.227,21.973,28.320,36.133,37.598
1621557628.780,14.648,23.926,31.250,43.945,65.430
1621557628.784,12.207,25.391,32.715,44.922,95.703
1621557628.788,17.578,22.949,30.762,37.109,94.238
1621557628.781,26.855,23.438,27.832,33.691,84.961
1621557628.785,20.020,24.902,24.902,27.344,43.457
1621557628.789,19.043,19.531,31.738,34.180,43.945
1621557628.793,30.762,16.113,32.715,36.621,35.156
1621557628.797,24.902,19.531,28.809,31.738,12.695
1621557628.801,14.160,17.090,32.227,32.227,30.762
1621557628.805,16.113,17.578,33.691,27.344,2.441
1621557628.808,25.391,20.996,33.691,30.273,-12.207
1621557628.812,26.367,20.508,33.203,31.738,57.617
1621557628.816,32.715,20.508,32.227,22.461,31.738
1621557628.820,39.062,22.461,30.762,20.508,23.438
1621557628.824,38.574,24.902,28.320,23.438,-18.555
1621557628.837,33.203,23.926,23.926,20.020,2.930
1621557628.841,29.297,20.508,24.414,18.066,61.035
1621557628.845,32.715,19.531,28.320,19.043,6.836
1621557628.849,29.297,20.020,31.738,22.949,36.621
1621557628.853,26.367,18.555,32.227,24.414,117.676
1621557628.857,27.832,19.531,33.203,24.902,87.402
1621557628.861,29.297,20.996,31.738,19.043,51.270
1621557628.864,36.133,20.508,27.344,12.695,35.645
1621557628.868,42.480,22.461,30.762,13.672,15.625
1621557628.872,32.227,23.926,32.227,17.578,61.523
1621557628.876,11.719,21.484,26.855,21.484,51.758
1621557628.880,9.277,19.531,25.879,21.973,36.621
1621557628.875,30.273,22.949,28.809,21.484,51.270
1621557628.879,33.691,25.391,28.320,26.367,-3.906
1621557628.883,24.414,25.879,25.391,26.367,0.000
1621557628.887,27.832,21.973,23.926,19.043,45.410
1621557628.891,28.809,23.438,28.320,21.973,3.906
1621557628.895,11.230,26.367,30.762,31.738,17.090
1621557628.899,15.137,22.949,28.320,37.598,54.199
1621557628.902,28.320,19.531,26.855,30.762,68.359
1621557628.906,33.203,26.367,27.832,25.391,110.352
1621557628.910,40.527,31.738,28.809,31.738,43.945
1621557628.914,42.480,28.320,32.715,39.062,-12.695
1621557628.918,37.598,26.367,33.691,36.133,-10.742
1621557628.931,42.480,23.926,34.180,35.156,62.988
1621557628.935,39.551,18.555,36.621,41.504,73.242
1621557628.939,31.250,22.461,35.156,42.480,9.277
1621557628.943,39.551,24.902,33.691,37.598,23.438
1621557628.947,35.645,22.949,36.133,36.621,39.062
1621557628.951,32.227,24.902,35.156,30.273,35.156
1621557628.955,38.574,27.344,34.180,26.855,40.039
1621557628.958,36.621,28.809,34.180,30.273,-15.625
1621557628.962,33.691,29.297,34.668,32.715,-48.340
1621557628.966,41.992,25.879,36.621,28.320,-23.438
1621557628.970,36.133,25.879,35.156,27.344,0.000
1621557628.974,32.227,25.879,36.621,31.738,-28.320
1621557628.970,33.203,26.367,38.086,29.785,-32.227
1621557628.974,18.066,24.902,36.621,32.715,-9.277
1621557628.978,12.207,27.344,35.156,44.922,-36.621
1621557628.982,22.949,28.809,37.109,48.828,-77.148
1621557628.986,37.109,24.902,40.039,38.086,-41.992
1621557628.990,40.039,30.273,38.574,29.785,31.250
1621557628.994,33.691,34.180,40.039,32.715,18.066
1621557628.997,30.273,33.203,40.527,35.645,16.113
1621557629.001,32.715,32.227,40.527,30.273,10.742
1621557629.005,22.949,31.738,37.598,30.273,-36.133
1621557629.009,25.391,34.668,38.574,31.250,20.508
1621557629.013,35.645,33.691,43.457,26.855,10.742
1621557629.026,34.180,29.297,40.527,30.273,12.207
1621557629.030,33.203,27.344,39.551,29.297,48.828
1621557629.034,34.668,30.273,39.062,24.902,35.645
1621557629.038,45.410,26.367,36.621,31.250,66.406
1621557629.042,52.734,29.297,34.668,29.297,75.195
1621557629.046,50.781,31.250,35.645,21.484,70.801
1621557629.050,33.691,24.902,39.551,29.785,43.945
1621557629.053,19.043,21.973,41.992,35.156,4.883
1621557629.057,23.926,26.367,39.551,37.598,37.109
1621557629.061,34.668,28.320,38.574,41.016,35.645
1621557629.065,37.109,19.043,42.480,38.574,-2.441
1621557629.069,36.621,20.020,39.062,39.062,30.762
1621557629.062,34.180,26.855,39.062,40.039,57.617
1621557629.066,18.555,28.320,41.016,31.250,19.531
1621557629.070,30.273,25.391,34.668,31.250,21.484
1621557629.074,34.668,23.926,31.250,31.250,32.715
1621557629.078,20.508,26.855,31.250,13.672,27.832
1621557629.082,24.414,26.367,34.668,11.719,31.250
1621557629.086,28.809,28.809,33.203,17.090,17.090
1621557629.089,23.926,28.809,28.809,15.625,14.160
1621557629.093,32.227,28.320,30.762,20.020,44.434
1621557629.097,39.551,29.785,32.227,26.855,65.918
1621557629.101,42.969,26.367,29.785,28.320,76.172
1621557629.105,49.316,26.855,33.203,27.344,41.016
1621557629.118,55.176,27.344,34.668,32.715,19.531
1621557629.122,47.363,25.391,33.691,39.062,41.016
1621557629.126,41.016,25.391,33.203,41.504,32.715
1621557629.130,46.387,24.414,29.297,35.645,83.984
1621557629.134,44.434,21.484,30.273,37.598,28.320
1621557629.138,47.363,23.438,31.738,38.086,24.902
1621557629.142,48.340,24.414,32.227,28.809,21.973
1621557629.145,39.551,20.508,34.668,29.297,-41.504
1621557629.149,34.668,22.949,34.180,35.156,41.016
1621557629.153,37.598,29.785,32.227,29.297,52.246
1621557629.157,41.504,29.785,33.203,23.438,53.711
1621557629.161,40.039,23.438,32.715,22.461,54.688
1621557629.156,54.199,23.926,28.809,20.020,33.691
1621557629.160,66.895,22.949,28.809,23.926,12.207
1621557629.164,37.598,22.461,30.762,35.156,1.465
1621557629.168,9.277,21.973,31.738,30.762,11.719
1621557629.172,22.461,20.508,28.809,16.113,46.875
1621557629.176,29.785,21.973,27.344,18.066,61.035
1621557629.180,27.832,23.438,26.367,28.320,85.938
1621557629.183,24.414,21.484,27.832,27.344,31.738
1621557629.187,16.113,21.973,32.715,29.297,-1.465
1621557629.191,20.020,22.461,34.180,29.785,17.578
1621557629.195,28.809,20.020,31.250,34.180,-12.207
1621557629.199,32.227,20.996,30.762,39.062,-27.832
1621557629.212,24.414,20.996,32.715,29.297,-9.766
1621557629.216,22.949,18.555,31.738,29.785,45.410
1621557629.220,29.785,16.113,32.227,34.180,51.270
1621557629.224,24.902,20.996,34.180,39.062,33.203
1621557629.228,25.391,23.926,31.738,31.250,44.922
1621557629.232,27.344,22.949,29.297,22.461,76.660
1621557629.236,28.320,20.996,31.738,24.902,60.547
1621557629.239,31.738,20.020,33.203,33.203,24.414
1621557629.243,28.320,20.020,36.133,37.598,26.367
1621557629.247,30.273,18.555,36.133,34.180,38.086
1621557629.251,38.086,19.043,32.715,32.715,64.941
1621557629.255,34.668,15.137,33.203,35.645,-8.301
1621557629.251,30.273,13.672,35.645,34.668,-44.922
1621557629.255,35.645,16.602,33.203,33.691,29.785
1621557629.259,51.270,16.113,31.738,31.738,26.855
1621557629.263,53.711,14.160,33.203,32.227,9.277
1621557629.267,49.316,16.113,33.203,35.156,19.531
1621557629.271,36.133,17.578,29.297,30.273,65.918
1621557629.275,23.438,19.043,28.809,36.133,73.730
1621557629.278,35.156,20.020,32.227,49.805,34.668
1621557629.282,43.457,16.602,33.691,45.898,12.695
1621557629.286,36.621,16.602,29.785,27.832,-17.090
1621557629.290,31.250,18.555,27.344,26.367,-9.277
1621557629.294,32.715,20.020,28.809,33.203,15.625
1621557629.307,30.762,17.090,30.273,34.180,56.641
1621557629.311,21.484,18.066,28.809,31.738,67.871
1621557629.315,20.996,19.043,28.320,32.227,2.441
1621557629.319,29.785,17.090,31.250,35.645,-32.227
1621557629.323,33.203,22.461,35.645,38.574,-6.836
1621557629.327,31.738,23.926,35.156,29.785,5.859
1621557629.331,29.785,16.602,33.691,25.879,47.852
1621557629.334,18.555,14.160,34.180,31.738,83.496
1621557629.338,16.113,14.160,35.645,40.039,45.410
1621557629.342,18.066,14.648,36.133,42.969,46.875
1621557629.346,13.672,13.672,34.668,31.738,75.195
1621557629.350,16.602,11.230,34.668,28.320,65.430
1621557629.344,12.695,11.719,33.691,23.438,53.223
1621557629.348,11.719,13.672,35.156,15.625,39.062
1621557629.352,20.508,16.602,36.621,18.066,13.184
1621557629.356,27.344,17.578,35.156,15.137,-8.789
1621557629.360,34.180,14.160,33.203,17.578,-20.996
1621557629.364,33.691,15.625,32.227,20.020,41.016
1621557629.368,36.621,14.648,36.133,21.973,101.562
1621557629.371,49.316,18.066,36.133,22.949,57.617
1621557629.375,66.406,18.555,38.086,22.949,-10.742
1621557629.379,52.246,12.207,38.086,35.156,11.230
1621557629.383,32.227,12.695,31.250,36.133,17.578
1621557629.387,31.738,19.531,27.344,31.738,58.594
1621557629.400,38.574,16.113,32.715,38.574,74.219
1621557629.404,32.715,12.207,34.180,35.645,3.418
1621557629.408,39.062,17.578,30.273,31.738,-22.949
1621557629.412,30.762,13.184,31.250,33.203,31.738
1621557629.416,11.719,12.207,33.203,36.621,78.613
1621557629.420,11.230,9.766,32.227,36.133,51.270
1621557629.424,11.230,4.395,32.227,28.809,52.734
1621557629.427,1.465,6.348,32.227,26.855,57.617
1621557629.431,2.441,6.836,31.250,20.020,43.457
1621557629.435,7.324,7.812,27.344,14.160,78.613
1621557629.439,13.672,13.184,24.414,15.137,59.570
1621557629.443,23.438,11.230,24.414,10.254,0.488
1621557629.437,22.461,8.789,26.367,13.184,-14.648
1621557629.441,22.461,10.742,29.785,16.602,14.648
1621557629.445,23.926,13.184,29.297,17.090,43.457
1621557629.449,31.738,12.695,27.344,20.020,6.836
1621557629.453,41.504,10.254,27.832,20.508,-8.789
1621557629.457,35.156,14.648,28.320,18.555,25.391
1621557629.461,32.227,13.672,31.250,18.066,36.133
1621557629.464,43.945,12.695,33.203,23.438,42.969
1621557629.468,42.480,15.625,31.738,28.809,34.180
1621557629.472,51.758,9.277,31.738,30.762,8.789
1621557629.476,54.199,9.766,29.297,43.945,79.102
1621557629.480,40.039,16.602,27.832,39.551,107.422
1621557629.494,40.527,18.555,29.297,28.320,22.461
1621557629.498,53.711,16.602,31.250,29.297,-9.277
1621557629.502,58.105,13.184,31.250,29.785,13.672
1621557629.506,48.340,13.184,30.273,37.598,-9.277
1621557629.510,33.203,17.090,29.785,31.250,-50.293
1621557629.514,20.508,17.090,27.344,23.926,14.648
1621557629.518,35.156,8.301,30.762,37.109,57.617
1621557629.521,46.875,4.395,34.180,45.410,16.113
1621557629.525,36.621,10.742,32.227,33.203,-39.551
1621557629.529,20.508,14.648,32.715,24.414,-7.812
1621557629.533,19.531,11.719,35.156,25.391,55.664
1621557629.537,25.391,10.254,37.109,28.320,29.785
1621557629.532,23.438,9.766,39.062,27.832,58.594
1621557629.536,15.625,8.301,37.598,19.531,71.777
1621557629.540,4.395,4.395,36.133,23.926,23.438
1621557629.544,-6.348,4.883,36.133,31.738,30.762
1621557629.548,-10.254,7.324,35.156,26.855,29.785
1621557629.552,-1.465,7.812,40.527,28.809,28.320
1621557629.556,14.648,9.277,41.016,24.414,28.320
1621557629.559,26.855,16.113,34.668,29.297,25.879
1621557629.563,34.180,16.113,37.109,43.457,35.156
1621557629.567,36.621,15.625,38.574,34.180,2.441
1621557629.571,40.527,20.508,35.156,22.949,49.805
1621557629.575,51.758,20.020,34.668,28.320,30.273
1621557629.607,48.828,17.578,34.668,25.391,-21.484
1621557629.611,43.457,16.602,33.203,16.113,3.906
1621557629.615,42.480,20.508,31.738,20.508,1.953
1621557629.619,42.969,20.996,27.832,16.602,3.906
1621557629.623,46.387,15.137,27.832,12.695,-1.465
1621557629.627,41.504,11.719,32.227,23.926,-21.973
1621557629.631,47.363,15.625,29.297,24.414,1.953
1621557629.634,43.945,15.625,30.762,24.902,74.707
1621557629.638,31.738,16.113,38.574,29.785,71.289
1621557629.642,28.320,16.113,38.086,31.250,22.461
1621557629.646,24.902,13.184,20.996,28.320,13.672
1621557629.650,27.344,10.254,13.184,30.762,42.480
1621557629.626,15.625,3.906,33.203,24.902,47.363
1621557629.630,17.578,2.441,41.016,15.625,46.875
1621557629.634,20.996,6.348,39.551,25.391,-0.977
1621557629.638,5.859,7.324,38.086,27.832,20.996
1621557629.642,2.930,4.395,41.504,31.250,58.594
1621557629.646,10.254,3.906,48.340,35.156,-18.066
1621557629.650,13.184,3.906,44.434,26.367,-20.508
1621557629.653,15.137,5.371,43.945,23.926,7.812
1621557629.657,12.695,7.812,42.969,16.113,26.367
1621557629.661,18.066,4.395,30.273,18.555,19.531
1621557629.665,9.277,6.348,23.438,22.461,21.973
1621557629.669,-1.465,6.836,34.668,20.508,59.570
1621557629.681,11.719,8.789,38.086,31.738,49.805
1621557629.685,26.367,11.230,33.203,34.668,14.160
1621557629.689,25.879,13.672,26.855,35.645,30.273
1621557629.693,38.086,20.508,31.250,41.016,71.289
1621557629.697,42.969,17.090,41.016,36.621,34.668
1621557629.701,42.969,14.160,43.457,19.531,-16.602
1621557629.705,50.781,15.625,48.828,12.207,-8.301
1621557629.708,55.176,19.531,48.340,11.230,-22.949
1621557629.712,55.176,19.043,45.410,18.555,34.668
1621557629.716,44.434,19.043,41.504,32.227,70.801
1621557629.720,39.551,19.043,40.039,39.551,72.754
1621557629.724,37.109,15.137,39.551,36.621,15.137
1621557629.726,35.156,12.207,35.645,41.016,40.527
1621557629.730,38.574,13.672,34.668,41.504,66.406
1621557629.734,39.551,16.113,41.992,42.480,-2.441
1621557629.738,29.785,8.789,39.551,31.738,-8.301
1621557629.742,28.809,3.906,42.969,33.203,36.133
1621557629.745,23.926,5.859,46.875,42.480,44.434
1621557629.749,16.113,7.812,38.574,40.527,5.371
1621557629.753,11.719,8.789,33.691,32.227,39.551
1621557629.757,16.113,4.395,38.086,24.902,43.945
1621557629.761,20.508,2.441,42.480,26.367,15.137
1621557629.775,14.648,0.488,44.434,29.785,35.645
1621557629.779,18.555,0.488,44.434,31.250,-4.883
1621557629.783,15.625,5.371,41.504,30.273,-56.641
1621557629.787,20.508,7.812,40.039,25.391,-33.203
1621557629.791,35.156,8.789,39.062,20.508,33.691
1621557629.795,31.250,7.324,40.039,25.391,22.461
1621557629.799,34.668,6.348,39.551,18.066,4.883
1621557629.802,35.156,9.277,39.551,9.277,32.715
1621557629.806,34.668,12.207,33.691,19.043,73.730
1621557629.810,33.691,12.695,30.762,16.602,91.797
1621557629.814,40.039,10.742,31.250,21.484,36.621
1621557629.818,49.805,10.742,34.668,34.668,59.082
1621557629.813,46.387,11.230,34.668,34.668,93.262
1621557629.817,39.062,10.742,34.668,30.762,29.297
1621557629.821,39.551,8.789,36.133,31.738,33.691
1621557629.825,48.828,5.859,35.645,31.250,41.016
1621557629.829,47.852,8.301,36.621,29.297,-16.113
1621557629.833,29.297,9.277,35.156,29.785,-9.766
1621557629.837,17.578,7.812,31.738,25.391,72.266
1621557629.840,18.555,7.324,28.809,26.855,78.125
1621557629.844,20.508,9.766,33.203,28.809,96.680
1621557629.848,22.461,7.324,38.574,32.227,23.926
1621557629.852,29.785,3.906,37.109,35.156,-4.395
1621557629.856,26.367,-1.953,36.133,38.574,28.320
1621557629.870,17.090,-3.906,36.133,38.574,15.137
1621557629.874,16.113,4.395,30.762,31.250,62.500
1621557629.878,17.578,9.766,26.855,26.367,78.613
1621557629.882,22.461,7.324,34.180,28.320,48.340
1621557629.886,22.461,7.324,37.109,19.043,-3.906
1621557629.890,26.367,7.324,32.227,13.184,45.410
1621557629.894,22.949,4.395,33.691,15.625,27.832
1621557629.897,24.414,5.371,34.668,8.789,-18.555
1621557629.901,29.785,7.812,34.180,7.812,11.719
1621557629.905,29.297,2.441,38.574,18.555,41.992
1621557629.909,34.180,1.953,40.527,20.508,15.137
1621557629.913,38.574,7.812,40.527,26.855,-51.270
1621557629.906,22.949,10.742,36.621,35.156,54.199
1621557629.910,17.578,14.160,32.227,40.039,92.285
1621557629.914,17.578,14.160,32.227,44.922,25.391
1621557629.918,14.160,13.672,32.227,38.574,8.301
1621557629.922,24.902,9.277,32.227,37.109,46.387
1621557629.926,34.180,6.836,30.762,35.645,11.719
1621557629.930,45.410,11.719,31.250,32.715,-1.465
1621557629.933,46.875,14.160,31.738,27.832,18.555
1621557629.937,33.691,12.695,33.691,28.809,-10.254
1621557629.941,29.785,11.719,30.762,30.273,5.371
1621557629.945,30.273,10.742,28.320,24.414,59.570
1621557629.949,29.297,5.371,35.645,24.902,67.871
1621557629.962,35.645,10.254,38.574,27.344,28.320
1621557629.966,37.109,14.648,42.969,31.738,11.230
1621557629.970,32.227,19.531,42.480,31.738,-32.227
1621557629.974,20.020,18.555,39.551,28.320,29.297
1621557629.978,20.508,14.160,39.551,25.879,26.855
1621557629.982,27.344,17.090,37.598,23.438,54.688
1621557629.986,25.391,18.066,37.109,29.785,88.379
1621557629.989,26.855,16.602,36.133,34.180,-5.371
1621557629.993,37.109,11.230,30.273,30.762,-19.531
1621557629.997,44.434,8.789,29.297,26.855,35.156
1621557630.001,38.574,13.672,32.715,31.250,47.363
1621557630.005,34.180,15.137,34.180,29.297,67.383
1621557630.000,30.762,10.254,33.691,23.926,83.008
1621557630.004,20.996,9.277,31.738,25.879,65.918
1621557630.008,32.227,10.254,35.156,31.738,25.391
1621557630.012,28.809,8.789,34.668,36.133,51.270
1621557630.016,18.555,10.254,31.250,33.691,51.270
1621557630.020,35.156,10.742,32.227,37.598,-42.480
1621557630.024,43.457,10.254,35.645,45.410,7.324
1621557630.027,41.504,12.207,30.762,52.246,52.734
1621557630.031,41.504,16.602,23.926,54.199,2.441
1621557630.035,39.062,18.555,33.691,46.387,12.207
1621557630.039,34.668,15.625,41.016,35.156,31.250
1621557630.043,33.203,15.137,36.133,30.762,29.297
1621557630.056,32.715,12.695,33.203,29.785,31.738
1621557630.060,41.016,14.160,33.203,27.344,0.000
1621557630.064,58.594,16.113,37.109,29.785,-17.090
1621557630.068,42.969,19.531,32.227,28.320,-21.973
1621557630.072,32.227,16.602,26.855,24.414,-28.809
1621557630.076,45.410,14.160,31.250,23.438,-55.664
1621557630.080,38.574,14.648,32.227,23.926,-68.359
1621557630.083,40.039,14.648,27.832,22.949,10.742
1621557630.087,36.133,17.578,27.344,23.926,37.109
1621557630.091,23.438,15.625,28.320,29.297,3.418
1621557630.095,32.227,14.648,27.832,18.555,44.434
1621557630.099,32.715,19.043,25.391,11.719,14.160
1621557630.095,31.250,20.020,27.344,19.531,2.441
1621557630.099,29.297,19.531,29.297,10.254,50.293
1621557630.103,31.738,19.531,31.250,6.348,63.477
1621557630.107,29.785,18.066,34.180,14.160,77.637
1621557630.111,34.668,16.113,34.180,20.020,76.172
1621557630.115,49.805,15.625,36.133,27.344,-39.062
1621557630.119,46.875,13.184,32.715,31.250,-23.926
1621557630.122,26.367,13.672,26.367,31.738,16.113
1621557630.126,22.461,18.555,30.273,35.645,-12.207
1621557630.130,30.273,15.625,37.598,42.480,30.273
1621557630.134,40.039,10.254,39.551,44.922,36.133
1621557630.138,36.621,13.672,41.992,42.480,0.977
1621557630.170,39.551,14.648,42.480,41.504,8.789
1621557630.174,40.527,13.184,36.621,42.969,57.617
1621557630.178,30.273,13.672,39.551,44.434,43.945
1621557630.182,38.086,14.160,47.363,51.270,68.848
1621557630.186,44.922,15.625,42.480,46.387,67.383
1621557630.190,43.457,16.602,41.016,44.434,7.324
1621557630.194,44.434,19.531,39.062,39.551,28.809
1621557630.197,41.992,20.996,35.156,37.109,30.273
1621557630.201,32.227,22.461,33.691,46.387,21.484
1621557630.205,41.016,23.926,34.668,40.527,34.668
1621557630.209,45.410,21.484,36.133,24.902,48.340
1621557630.213,37.598,23.438,27.832,14.160,47.363
1621557630.189,41.016,26.367,28.809,15.625,54.199
1621557630.193,45.898,22.461,39.551,25.879,43.457
1621557630.197,47.363,15.625,36.133,28.809,-32.715
1621557630.201,54.688,12.695,36.133,31.250,19.043
1621557630.205,45.898,16.602,39.551,33.691,74.707
1621557630.209,35.156,19.043,36.133,36.133,24.902
1621557630.213,35.645,16.602,34.668,39.551,22.949
1621557630.216,39.551,15.137,31.250,32.715,41.992
1621557630.220,37.598,17.578,29.785,19.043,2.441
1621557630.224,35.156,18.066,29.785,14.648,-46.387
1621557630.228,35.645,17.090,29.785,17.578,11.230
1621557630.232,31.250,15.137,32.715,17.578,55.176
1621557630.243,20.996,9.277,34.180,19.531,39.551
1621557630.247,18.066,9.766,37.109,13.184,-6.348
1621557630.251,16.602,8.789,38.574,16.602,-17.090
1621557630.255,13.184,7.812,42.969,23.926,54.688
1621557630.259,23.926,13.672,44.434,21.973,70.801
1621557630.263,32.715,17.578,41.504,21.973,18.066
1621557630.267,39.062,19.531,39.551,22.461,14.648
1621557630.270,37.109,18.555,39.062,24.414,23.438
1621557630.274,35.645,14.160,41.992,30.273,42.480
1621557630.278,36.133,12.207,39.062,35.156,36.621
1621557630.282,26.855,16.602,34.668,33.691,23.438
1621557630.286,36.133,21.973,38.086,33.203,-11.719
1621557630.281,35.156,22.461,38.574,33.691,-31.738
1621557630.285,33.691,19.531,33.203,37.598,8.789
1621557630.289,41.992,20.020,32.227,36.621,105.469
1621557630.293,33.203,19.043,38.086,34.668,51.758
1621557630.297,33.691,17.090,39.551,25.391,-29.785
1621557630.301,31.250,20.020,38.086,22.949,-12.695
1621557630.305,24.902,21.973,36.133,25.879,-40.527
1621557630.308,21.973,21.484,38.574,24.902,-11.230
1621557630.312,29.297,20.508,35.156,34.668,50.293
1621557630.316,34.668,19.531,25.879,32.227,45.898
1621557630.320,40.039,16.113,35.645,23.438,57.129
1621557630.324,43.457,24.902,41.992,21.973,82.520
1621557630.337,43.457,27.832,41.016,21.484,84.961
1621557630.341,53.711,21.484,44.434,20.996,41.992
1621557630.345,57.617,23.926,39.551,20.508,-12.695
1621557630.349,40.527,26.367,32.715,24.414,29.297
1621557630.353,28.809,25.879,35.645,29.297,81.055
1621557630.357,25.879,26.367,38.574,33.203,47.363
1621557630.361,25.879,26.367,35.645,37.109,50.781
1621557630.364,26.855,20.020,36.133,38.574,83.984
1621557630.368,32.227,17.578,37.109,39.551,55.664
1621557630.372,29.785,17.090,38.574,41.992,85.938
1621557630.376,25.391,15.137,40.039,41.504,115.234
1621557630.380,35.645,15.137,40.039,39.062,82.031
1621557630.376,38.086,14.648,38.086,36.621,48.828
1621557630.380,19.531,17.090,34.668,33.203,26.367
1621557630.384,13.672,16.602,36.133,29.785,47.852
1621557630.388,19.531,19.531,33.691,27.832,50.293
1621557630.392,24.902,20.508,39.551,31.738,3.418
1621557630.396,27.832,17.578,47.363,25.879,15.137
1621557630.400,25.391,21.484,30.273,12.207,53.711
1621557630.403,24.902,24.414,24.902,11.719,58.594
1621557630.407,38.086,25.391,38.086,4.883,47.852
1621557630.411,48.340,24.902,41.992,8.301,33.691
1621557630.415,52.734,20.996,41.016,14.160,19.531
1621557630.419,55.664,21.484,38.574,13.672,2.930
1621557630.450,47.363,24.902,36.621,17.090,50.293
1621557630.454,48.828,22.461,31.250,23.926,77.148
1621557630.458,45.410,22.949,30.273,37.109,24.414
1621557630.462,28.320,24.902,41.992,45.410,-3.906
1621557630.466,27.832,21.484,49.805,48.340,6.836
1621557630.470,32.715,20.508,45.410,53.711,21.484
1621557630.474,34.180,19.043,39.551,58.105,23.926
1621557630.477,35.645,12.695,35.156,43.945,22.461
1621557630.481,28.320,13.672,32.715,38.574,-13.672
1621557630.485,25.879,16.602,36.621,52.246,-27.344
1621557630.489,24.902,20.020,31.738,44.922,-43.945
1621557630.493,21.484,22.461,23.926,27.832,-5.371
1621557630.469,11.230,21.973,29.785,28.320,6.836
1621557630.473,23.926,21.484,34.668,30.762,-10.254
1621557630.477,42.480,23.926,36.621,27.344,20.508
1621557630.481,41.992,27.344,39.062,27.344,-0.488
1621557630.485,30.273,24.902,38.574,29.785,-19.531
1621557630.489,32.715,27.344,37.598,32.227,-1.465
1621557630.493,41.992,27.832,35.156,30.762,-12.207
1621557630.496,36.621,27.832,40.039,28.809,1.953
1621557630.500,44.434,29.785,43.945,29.297,-6.348
1621557630.504,48.828,30.273,36.133,37.109,4.395
1621557630.508,38.574,28.320,35.645,43.457,31.738
1621557630.512,37.109,23.926,39.062,43.945,-12.207
1621557630.525,35.645,23.926,37.598,36.621,-8.789
1621557630.529,31.738,26.367,43.945,31.738,35.645
1621557630.533,33.691,29.785,46.875,30.273,45.410
1621557630.537,33.203,28.320,43.457,32.715,73.242
1621557630.541,35.156,31.738,40.527,38.086,84.473
1621557630.545,37.109,36.621,38.086,34.668,120.117
1621557630.549,36.133,33.203,29.297,25.879,119.629
1621557630.552,38.086,31.250,31.250,25.391,38.574
1621557630.556,44.922,29.785,42.969,26.367,1.953
1621557630.560,49.316,29.297,39.062,12.695,10.742
1621557630.564,42.480,29.785,38.086,12.207,-14.648
1621557630.568,24.414,30.762,40.039,25.879,-14.160
1621557630.562,18.066,33.691,38.574,26.855,41.992
1621557630.566,23.438,29.785,40.527,33.691,53.711
1621557630.570,31.250,27.832,43.457,41.504,46.387
1621557630.574,34.668,29.785,41.992,44.434,35.156
1621557630.578,37.598,31.738,42.480,44.922,44.434
1621557630.582,43.945,30.762,40.527,27.832,3.906
1621557630.586,40.527,29.785,39.551,28.320,5.859
1621557630.589,30.273,30.762,37.109,35.645,44.434
1621557630.593,31.250,27.344,36.621,26.855,14.160
1621557630.597,41.016,29.297,40.527,26.367,32.227
1621557630.601,49.805,32.227,39.062,29.785,38.086
1621557630.605,52.246,29.297,41.504,35.645,30.762
1621557630.619,51.270,28.320,47.852,43.945,38.086
1621557630.623,49.316,31.250,46.387,47.363,0.977
1621557630.627,44.922,29.785,41.992,46.387,33.203
1621557630.631,44.434,30.273,44.434,41.016,77.637
1621557630.635,42.969,30.762,43.457,36.133,14.648
1621557630.639,34.668,25.391,40.527,40.039,20.996
1621557630.643,44.922,29.785,39.551,36.133,36.621
1621557630.646,39.062,28.809,44.922,25.391,11.719
1621557630.650,18.066,23.926,46.875,23.438,43.945
1621557630.654,23.438,22.949,48.828,24.414,47.363
1621557630.658,24.414,26.855,51.758,24.902,57.129
1621557630.662,15.625,27.832,52.734,16.113,65.918
1621557630.657,17.090,24.902,52.734,7.324,12.207
1621557630.661,23.438,23.926,50.293,16.602,-1.465
1621557630.665,29.297,24.902,50.293,25.391,10.254
1621557630.669,19.043,25.391,53.223,20.508,38.574
1621557630.673,3.906,24.902,52.246,16.602,64.453
1621557630.677,-3.418,26.367,49.316,18.555,32.227
1621557630.681,6.836,25.391,45.410,15.625,-5.371
1621557630.684,19.043,26.855,41.504,13.672,24.414
1621557630.688,25.391,33.691,37.109,5.371,74.707
1621557630.692,39.062,33.691,35.645,10.254,57.617
1621557630.696,38.574,25.391,41.016,25.879,15.137
1621557630.700,23.926,28.320,41.992,32.227,-0.488
1621557630.713,18.066,30.762,42.969,37.109,41.504
1621557630.717,25.879,28.320,51.270,45.410,62.012
1621557630.721,17.090,29.297,50.781,41.992,35.156
1621557630.725,21.484,32.227,43.457,31.250,51.758
1621557630.729,34.668,31.738,45.898,35.645,30.762
1621557630.733,25.879,35.156,47.852,32.715,67.871
1621557630.737,27.832,33.691,47.852,40.527,61.523
1621557630.740,33.691,30.762,50.781,52.246,-5.371
1621557630.744,39.062,35.156,50.293,39.551,-7.812
1621557630.748,44.434,36.133,44.922,27.344,-2.441
1621557630.752,42.480,35.645,42.969,18.066,-8.301
1621557630.756,33.203,35.645,44.922,12.695,-11.719
1621557630.750,22.949,32.715,44.922,13.184,20.508
1621557630.754,22.461,28.320,46.875,17.578,7.324
1621557630.758,34.180,26.367,48.828,20.020,-36.621
1621557630.762,42.969,28.320,45.410,18.555,-20.996
1621557630.766,46.387,28.809,43.457,16.602,-83.496
1621557630.770,49.316,29.785,44.434,16.113,-43.457
1621557630.774,30.273,31.250,43.945,11.719,46.875
1621557630.777,21.484,28.809,45.898,15.625,57.617
1621557630.781,25.391,26.855,51.270,16.113,37.109
1621557630.785,20.508,33.203,52.734,20.020,23.926
1621557630.789,27.832,33.691,44.434,17.578,66.895
1621557630.793,39.062,28.320,40.527,18.555,46.875
1621557630.806,30.762,28.809,49.316,37.109,49.805
1621557630.810,19.043,35.645,52.246,27.832,75.684
1621557630.814,29.785,35.645,49.805,25.879,3.906
1621557630.818,36.133,28.809,51.758,37.598,-50.781
1621557630.822,30.273,27.344,49.316,37.598,6.348
1621557630.826,27.832,28.809,47.852,32.715,52.734
1621557630.830,32.715,30.273,53.223,30.762,19.531
1621557630.833,36.621,31.250,53.223,32.227,34.180
1621557630.837,35.156,30.273,47.363,31.738,69.824
1621557630.841,30.762,33.203,47.363,30.273,61.035
1621557630.845,33.691,36.133,50.781,30.273,54.199
1621557630.849,40.039,35.156,50.781,24.902,28.809
1621557630.844,48.340,36.133,48.828,26.367,26.367
1621557630.848,51.270,33.691,51.270,31.250,60.059
1621557630.852,42.480,33.691,52.734,24.414,39.551
1621557630.856,38.086,35.645,46.875,20.508,20.020
1621557630.860,41.016,37.598,41.016,12.695,54.688
1621557630.864,23.438,38.086,44.434,19.531,-3.418
1621557630.868,22.461,32.715,49.316,23.438,-20.020
1621557630.871,19.043,34.180,48.828,7.812,3.906
1621557630.875,13.184,34.180,49.316,7.812,5.371
1621557630.879,21.973,35.156,49.805,18.555,-13.184
1621557630.883,15.137,35.156,47.363,15.625,7.324
1621557630.887,21.973,29.785,47.852,14.648,-7.812
1621557630.900,27.832,34.668,48.340,13.672,15.625
1621557630.904,28.320,38.574,46.875,16.113,28.809
1621557630.908,34.668,34.668,49.805,20.508,-42.480
1621557630.912,46.875,37.598,54.688,19.531,3.906
1621557630.916,56.152,40.527,52.246,10.742,33.203
1621557630.920,46.387,43.945,48.828,15.137,34.668
1621557630.924,20.996,36.621,55.176,31.250,-26.367
1621557630.927,22.949,33.691,54.199,31.738,-46.387
1621557630.931,31.250,39.062,50.293,29.785,2.930
1621557630.935,28.320,41.016,51.270,35.645,-5.859
1621557630.939,33.691,38.574,50.293,41.504,23.926
1621557630.943,33.691,40.527,48.340,30.273,-22.949
1621557630.938,35.645,44.434,49.316,24.414,0.000
1621557630.942,42.480,38.574,49.316,30.762,2.930
1621557630.946,35.156,32.227,49.805,36.133,17.090
1621557630.950,29.297,35.156,52.246,31.250,0.488
1621557630.954,41.504,39.062,51.270,27.344,-0.488
1621557630.958,41.992,39.062,50.781,31.738,-4.883
1621557630.962,33.691,37.109,54.199,31.250,12.695
1621557630.965,23.438,38.574,54.199,27.832,85.938
1621557630.969,16.602,36.133,57.617,21.973,34.180
1621557630.973,16.602,30.273,59.082,20.020,41.992
1621557630.977,3.418,32.715,56.152,20.508,71.777
1621557630.981,4.395,32.715,54.688,22.461,50.781
1621557630.995,19.531,31.738,52.246,20.020,62.012
1621557630.999,21.484,32.227,54.688,21.973,6.348
1621557631.003,19.043,34.180,56.641,33.203,-21.484
1621557631.007,21.973,37.109,54.199,21.484,-17.090
1621557631.011,31.250,39.551,54.199,13.672,-21.973
1621557631.015,39.062,40.527,56.641,20.996,9.277
1621557631.019,29.785,41.016,54.199,21.973,35.156
1621557631.022,27.832,41.016,50.293,27.344,59.570
1621557631.026,41.504,42.480,53.223,32.227,78.613
1621557631.030,41.504,46.387,54.199,30.273,28.320
1621557631.034,39.551,45.898,53.711,36.621,-16.113
1621557631.038,43.945,42.480,53.711,42.969,45.898
1621557631.031,37.598,43.457,53.223,38.574,42.480
1621557631.035,34.180,41.992,55.176,34.668,21.973
1621557631.039,31.738,41.992,55.176,36.133,56.152
1621557631.043,30.762,46.387,53.223,41.016,60.547
1621557631.047,37.598,43.945,52.246,37.109,62.988
1621557631.051,35.645,37.598,51.758,34.180,52.246
1621557631.055,42.969,38.086,55.176,41.504,34.180
1621557631.058,47.363,40.039,55.176,41.016,20.020
1621557631.062,45.898,37.598,54.688,36.621,51.758
1621557631.066,39.551,38.574,55.664,30.273,24.902
1621557631.070,11.719,35.645,53.711,32.227,-47.363
1621557631.074,-6.836,33.203,53.223,32.715,2.441
1621557631.087,-4.883,32.715,52.734,29.785,58.594
1621557631.091,7.812,34.180,53.711,25.879,-24.902
1621557631.095,13.184,34.180,55.664,17.578,-15.625
1621557631.099,13.672,36.621,50.293,12.207,62.012
1621557631.103,21.484,36.133,54.199,22.461,60.059
1621557631.107,15.137,37.109,60.059,34.180,41.992
1621557631.111,1.465,41.504,57.129,21.973,38.574
1621557631.114,-1.465,41.016,56.641,20.996,28.320
1621557631.118,1.953,43.457,58.594,34.668,-5.859
1621557631.122,18.555,44.922,61.035,37.598,0.000
1621557631.126,20.508,45.898,58.594,19.043,25.879
1621557631.130,24.414,49.316,54.688,14.648,28.320
1621557631.125,23.926,44.434,55.176,20.996,28.320
1621557631.129,11.719,45.898,58.594,8.301,29.297
1621557631.133,10.742,48.828,56.152,14.648,72.754
1621557631.137,24.902,50.781,51.758,29.785,101.562
1621557631.141,29.297,57.129,50.781,23.438,22.461
1621557631.145,16.113,62.012,47.363,25.391,22.461
1621557631.149,27.832,58.105,48.340,39.551,51.758
1621557631.152,30.273,55.176,52.246,28.320,54.688
1621557631.156,23.926,54.688,53.223,24.414,90.820
1621557631.160,30.762,51.758,55.664,48.828,30.762
1621557631.164,31.250,47.852,55.664,40.527,18.066
1621557631.168,47.852,49.805,48.340,26.855,61.035
1621557631.181,36.621,50.781,43.457,23.926,42.969
1621557631.185,25.879,46.875,49.316,30.273,15.625
1621557631.189,52.246,51.270,48.828,35.645,12.695
1621557631.193,69.824,53.711,44.922,29.785,56.641
1621557631.197,41.016,46.875,51.270,30.762,92.285
1621557631.201,14.160,48.340,54.199,30.762,89.355
1621557631.205,11.230,50.293,52.246,22.949,8.301
1621557631.208,19.531,49.316,53.711,30.762,20.020
1621557631.212,10.742,49.805,55.664,38.574,92.285
1621557631.216,-6.348,47.852,53.223,25.879,50.293
1621557631.220,0.488,52.734,50.293,18.555,67.383
1621557631.224,26.367,57.617,56.152,31.738,35.156
1621557631.220,23.926,53.223,59.570,38.086,3.906
1621557631.224,12.207,49.805,59.082,32.715,42.969
1621557631.228,14.160,52.734,55.664,30.762,56.641
1621557631.232,32.227,58.594,51.270,28.320,49.805
1621557631.236,22.949,55.176,54.688,43.945,11.719
1621557631.240,10.254,56.152,50.781,23.926,-23.926
1621557631.244,16.602,60.059,42.969,8.789,-16.602
1621557631.247,20.508,61.035,43.945,34.668,48.828
1621557631.251,31.250,64.453,46.387,32.227,67.871
1621557631.255,34.668,58.594,50.293,35.156,15.137
1621557631.259,28.320,58.105,50.293,37.598,7.812
1621557631.263,39.551,60.059,47.852,33.203,20.508
1621557631.276,41.504,62.500,45.898,12.207,44.922
1621557631.280,20.020,56.641,45.898,4.395,20.996
1621557631.284,16.602,52.734,53.711,38.086,-48.340
1621557631.288,23.438,57.617,51.758,44.434,0.000
1621557631.292,52.734,57.129,42.969,37.109,37.109
1621557631.296,54.199,54.199,48.828,27.832,46.875
1621557631.300,49.805,54.688,52.246,23.926,38.086
1621557631.303,47.363,58.105,48.828,33.691,26.367
1621557631.307,22.461,57.129,48.828,41.504,-0.977
1621557631.311,10.742,58.105,49.805,44.922,-9.766
1621557631.315,20.020,55.176,46.387,42.969,33.203
1621557631.319,21.973,52.246,45.410,32.227,26.367
1621557631.312,5.859,56.152,44.922,23.926,33.691
1621557631.316,24.414,57.129,46.387,46.387,58.105
1621557631.320,20.020,61.035,44.434,42.969,55.176
1621557631.324,-0.488,63.477,38.086,27.344,76.172
1621557631.328,1.465,61.035,40.527,26.367,68.848
1621557631.332,23.438,58.594,42.969,24.902,-3.418
1621557631.336,27.344,59.082,43.457,25.391,-28.320
1621557631.339,38.574,65.430,40.527,14.648,68.848
1621557631.343,56.641,61.523,41.504,33.203,111.816
1621557631.347,48.828,58.594,41.504,27.344,57.617
1621557631.351,54.199,64.453,36.133,0.000,-7.812
1621557631.355,62.500,64.453,36.621,13.184,14.648
1621557631.369,59.082,63.477,37.109,29.785,57.129
1621557631.373,45.410,56.641,38.574,26.367,38.574
1621557631.377,40.039,55.176,38.086,24.414,-22.949
1621557631.381,47.852,57.617,32.715,40.039,-2.930
1621557631.385,48.828,54.199,38.086,28.320,9.766
1621557631.389,44.434,57.129,35.156,15.137,-3.906
1621557631.393,44.434,55.664,33.691,21.484,6.348
1621557631.396,33.203,49.805,37.598,46.875,-31.738
1621557631.400,5.371,48.828,39.551,43.945,-23.926
1621557631.404,-0.977,51.758,38.086,7.324,5.371
1621557631.408,7.812,49.805,36.133,16.113,29.297
1621557631.412,18.066,38.086,44.922,38.574,44.434
1621557631.406,14.648,42.969,43.945,38.574,64.453
1621557631.410,23.926,45.898,44.434,37.598,99.121
1621557631.414,55.664,38.574,45.898,26.367,57.617
1621557631.418,45.898,46.387,39.551,25.391,55.664
1621557631.422,39.062,50.293,40.527,25.879,41.016
1621557631.426,42.480,50.781,41.992,17.578,11.230
1621557631.430,25.879,48.340,40.039,12.207,34.180
1621557631.433,25.879,46.875,38.086,2.441,2.441
1621557631.437,25.879,42.480,42.480,-2.930,16.602
1621557631.441,24.902,41.992,41.504,4.883,26.855
1621557631.445,54.688,52.734,35.156,12.207,27.344
1621557631.449,49.805,47.852,35.645,11.230,-13.184
1621557631.462,36.621,41.016,40.527,17.578,56.641
1621557631.466,53.711,43.457,43.945,21.973,115.234
1621557631.470,50.293,44.922,45.410,29.785,31.250
1621557631.474,42.969,44.922,47.852,38.574,46.875
1621557631.478,38.086,46.387,47.852,25.879,51.758
1621557631.482,41.992,42.480,44.922,23.438,26.855
1621557631.486,48.828,43.457,43.457,43.945,1.465
1621557631.489,51.758,46.875,45.898,40.527,-1.953
1621557631.493,42.480,46.387,42.969,31.250,31.250
1621557631.497,33.691,45.410,37.598,26.367,3.418
1621557631.501,4.395,49.316,42.480,17.090,56.641
1621557631.505,-10.742,39.062,46.387,14.648,80.078
1621557631.501,31.738,35.645,41.992,17.578,37.598
1621557631.505,42.480,43.945,37.598,21.973,27.344
1621557631.509,41.016,41.016,37.109,13.184,9.766
1621557631.513,59.570,38.574,40.039,23.926,27.832
1621557631.517,48.828,47.852,40.527,19.043,34.668
1621557631.521,40.039,45.410,39.062,15.625,14.160
1621557631.525,39.551,37.598,44.434,35.645,20.020
1621557631.528,41.504,35.645,42.969,26.855,2.441
1621557631.532,42.969,27.344,36.133,13.672,-6.836
1621557631.536,41.992,37.109,36.133,28.320,43.457
1621557631.540,44.922,39.551,41.504,49.805,48.828
1621557631.544,18.555,41.504,34.180,27.832,45.410
1621557631.557,21.484,37.598,32.715,24.414,70.312
1621557631.561,34.668,29.785,35.645,30.762,64.453
1621557631.565,18.555,26.855,38.086,28.809,36.621
1621557631.569,18.066,31.738,35.645,30.762,16.113
1621557631.573,43.457,30.762,30.762,46.387,31.738
1621557631.577,47.852,25.879,36.621,53.223,40.527
1621557631.581,23.438,27.832,37.598,28.320,32.227
1621557631.584,22.949,30.762,35.156,29.297,17.090
1621557631.588,45.410,30.762,36.133,45.898,15.137
1621557631.592,60.547,32.715,31.250,35.645,-0.488
1621557631.596,46.387,36.133,26.367,13.672,1.465
1621557631.600,51.270,32.227,23.926,9.277,54.199
1621557631.594,69.336,32.227,21.973,24.414,45.410
1621557631.598,67.383,29.785,24.902,50.781,32.227
1621557631.602,60.059,26.855,26.367,41.504,34.668
1621557631.606,50.293,29.785,23.438,20.508,17.090
1621557631.610,57.617,31.250,25.391,38.086,27.832
1621557631.614,61.523,33.691,25.879,43.457,32.715
1621557631.618,10.254,38.086,24.902,35.645,-5.371
1621557631.621,20.020,34.668,21.484,19.531,-39.551
1621557631.625,39.551,30.762,20.020,9.766,1.465
1621557631.629,35.156,27.832,25.391,11.230,9.766
1621557631.633,62.500,28.809,25.391,26.855,-67.383
1621557631.637,45.410,28.809,28.809,46.875,-37.598
1621557631.650,54.199,24.902,29.297,52.246,10.254
1621557631.654,52.734,27.832,25.879,35.156,34.180
1621557631.658,34.180,27.832,26.367,41.992,17.578
1621557631.662,49.805,28.320,20.996,35.645,-21.484
1621557631.666,41.992,22.949,24.902,35.645,62.012
1621557631.670,11.719,16.113,28.809,42.969,63.965
1621557631.674,25.391,19.531,22.461,8.301,-18.066
1621557631.677,34.180,20.020,26.855,12.695,-24.902
1621557631.681,26.855,18.555,30.273,36.621,39.551
1621557631.685,30.762,23.438,25.391,33.691,77.148
1621557631.689,28.320,29.297,25.879,29.297,23.926
1621557631.693,38.574,26.855,24.902,25.391,49.316
1621557631.687,73.730,27.832,20.996,23.926,74.707
1621557631.691,63.477,28.809,23.438,33.691,39.551
1621557631.695,39.551,31.738,24.414,39.062,20.996
1621557631.699,31.738,31.250,21.973,38.086,51.758
1621557631.703,41.992,26.855,20.996,37.109,42.969
1621557631.707,65.430,31.738,20.020,39.062,-12.695
1621557631.711,58.105,33.691,19.043,36.621,12.207
1621557631.714,42.480,27.832,21.973,36.621,32.227
1621557631.718,28.809,29.785,22.949,24.902,48.828
1621557631.722,30.273,31.250,21.973,30.762,55.664
1621557631.726,50.781,29.785,23.438,41.992,61.035
1621557631.730,46.387,33.203,26.367,28.809,30.273
1621557631.744,43.945,33.691,25.391,18.555,79.102
1621557631.748,35.156,36.621,26.367,19.531,110.352
1621557631.752,15.625,32.715,28.320,26.367,-30.273
1621557631.756,14.648,26.367,28.320,28.320,-29.297
1621557631.760,13.184,29.297,29.785,25.879,75.195
1621557631.764,17.090,24.902,32.227,38.574,112.305
1621557631.768,22.949,26.367,33.691,40.527,67.383
1621557631.771,21.484,27.832,34.668,41.016,55.176
1621557631.775,30.273,27.832,35.645,41.504,48.828
1621557631.779,29.785,28.809,33.203,29.297,1.953
1621557631.783,26.855,27.832,30.273,34.180,50.293
1621557631.787,27.344,29.297,29.785,34.180,112.793
1621557631.782,22.461,26.367,28.809,28.809,53.223
1621557631.786,20.996,20.996,28.809,29.297,-22.461
1621557631.790,31.250,23.438,28.809,25.391,4.395
1621557631.794,28.809,24.414,29.297,28.320,63.477
1621557631.798,24.414,25.879,24.414,16.602,62.988
1621557631.802,29.297,26.855,21.973,7.812,63.477
1621557631.806,31.738,24.414,23.438,19.043,41.504
1621557631.809,31.738,24.414,20.996,26.367,52.734
1621557631.813,20.508,26.367,22.461,28.809,76.660
1621557631.817,6.348,26.367,23.438,24.414,11.719
1621557631.821,8.301,24.414,24.902,21.484,73.730
1621557631.825,13.672,24.902,23.438,23.438,95.215
1621557631.838,18.066,21.973,20.996,19.531,44.922
1621557631.842,28.809,21.973,24.414,10.742,44.434
1621557631.846,35.156,23.438,27.832,3.906,22.949
1621557631.850,23.926,20.020,27.344,8.301,37.109
1621557631.854,11.230,18.555,26.367,18.066,55.664
1621557631.858,14.160,16.602,30.762,18.066,61.035
1621557631.862,23.438,20.020,34.180,14.160,37.109
1621557631.865,14.648,20.508,31.738,19.531,-21.973
1621557631.869,19.043,12.695,30.762,33.203,-52.246
1621557631.873,30.762,14.648,31.250,36.621,14.160
1621557631.877,30.273,18.066,32.227,39.062,37.598
1621557631.881,16.602,20.996,31.250,44.434,7.812
1621557631.876,23.926,16.602,28.809,53.223,15.137
1621557631.880,55.664,13.184,25.879,58.594,-15.137
1621557631.884,54.199,16.113,23.926,48.340,5.859
1621557631.888,26.855,15.625,28.809,31.738,16.113
1621557631.892,35.156,14.648,37.598,35.156,1.953
1621557631.896,41.016,8.789,39.062,43.945,58.594
1621557631.900,20.020,9.277,40.039,42.480,83.008
1621557631.903,11.719,15.137,41.016,40.039,68.359
1621557631.907,21.973,11.230,32.715,42.969,29.785
1621557631.911,24.414,9.277,30.762,44.434,-5.371
1621557631.915,10.254,9.277,37.109,42.969,5.371
1621557631.919,17.090,7.324,36.133,44.922,59.082
1621557631.931,22.949,7.812,31.250,36.621,44.922
1621557631.935,10.254,6.348,36.133,32.715,51.270
1621557631.939,14.648,7.324,35.156,37.598,73.242
1621557631.943,20.508,10.254,25.391,41.504,43.457
1621557631.947,16.602,11.230,28.809,31.250,14.160
1621557631.951,20.996,10.742,38.574,29.297,13.672
1621557631.955,30.762,11.230,37.598,31.738,11.230
1621557631.958,20.996,13.184,29.785,16.602,-13.184
1621557631.962,24.414,18.066,24.902,13.672,-0.488
1621557631.966,35.645,20.020,24.902,17.578,9.766
1621557631.970,35.156,16.113,25.879,20.996,58.594
1621557631.974,34.668,13.184,29.297,20.996,104.980
1621557631.969,24.902,13.184,31.738,19.531,81.543
1621557631.973,25.391,13.672,31.738,23.926,1.953
1621557631.977,39.062,15.137,31.250,34.668,11.230
1621557631.981,47.852,16.113,29.785,41.016,51.758
1621557631.985,48.828,15.625,32.227,42.969,29.785
1621557631.989,38.086,17.578,33.203,50.293,5.859
1621557631.993,30.762,19.531,34.668,58.594,14.160
1621557631.996,42.480,18.066,37.109,64.941,-11.230
1621557632.000,51.270,12.207,39.062,65.430,-32.227
1621557632.004,45.410,7.324,43.945,66.406,1.465
1621557632.008,43.945,8.789,39.062,65.918,19.043
1621557632.012,47.852,10.742,32.227,61.035,51.270
1621557632.025,49.805,14.648,35.156,56.641,20.508
1621557632.029,49.316,17.578,37.598,56.152,3.418
1621557632.033,42.969,20.020,37.598,57.617,16.113
1621557632.037,42.480,18.066,36.621,58.594,-10.254
1621557632.041,49.805,14.160,32.227,56.641,-16.113
1621557632.045,47.852,14.648,31.250,53.223,69.824
1621557632.049,41.992,13.184,28.809,50.293,44.434
1621557632.052,41.016,11.230,31.250,52.246,0.000
1621557632.056,28.809,7.812,35.156,45.898,26.367
1621557632.060,23.926,4.883,36.621,43.945,48.340
1621557632.064,31.250,12.207,34.180,40.527,43.945
1621557632.068,34.668,13.184,28.809,31.250,24.414
1621557632.063,41.504,11.719,26.855,26.367,-0.977
1621557632.067,28.320,15.137,24.902,25.391,-46.875
1621557632.071,20.508,11.230,23.926,20.508,24.414
1621557632.075,19.531,8.301,24.414,19.043,49.805
1621557632.079,11.719,10.742,25.879,24.414,10.254
1621557632.083,13.184,10.742,28.809,26.367,-2.441
1621557632.087,25.879,9.277,29.785,26.367,-0.488
1621557632.090,26.855,11.719,25.879,25.879,68.359
1621557632.094,27.832,11.230,23.926,29.297,99.121
1621557632.098,36.133,6.348,22.949,38.086,45.410
1621557632.102,36.621,6.348,21.484,43.945,22.461
1621557632.106,29.297,14.648,26.367,52.734,24.414
1621557632.120,34.180,19.531,30.762,54.688,29.785
1621557632.124,48.828,22.949,27.344,37.598,20.508
1621557632.128,49.805,20.996,21.973,31.250,-21.973
1621557632.132,42.480,20.020,20.508,33.203,-8.301
1621557632.136,44.434,21.484,21.973,33.691,-33.691
1621557632.140,47.363,21.484,23.438,36.621,-39.062
1621557632.144,48.340,19.531,23.438,36.621,5.859
1621557632.147,29.297,18.066,22.461,39.551,27.832
1621557632.151,24.902,21.973,24.414,45.410,39.062
1621557632.155,40.527,18.066,29.785,46.387,46.387
1621557632.159,41.992,11.230,30.273,45.410,75.684
1621557632.163,40.527,10.742,28.320,42.480,32.715
1621557632.156,34.668,13.184,23.926,41.992,3.418
1621557632.160,41.504,12.695,20.020,43.457,3.906
1621557632.164,46.387,11.719,31.250,42.969,-9.277
1621557632.168,40.527,11.719,41.016,42.480,-36.133
1621557632.172,46.875,7.812,39.062,41.016,-13.672
1621557632.176,36.621,6.348,34.668,43.457,54.199
1621557632.180,12.695,9.766,33.691,41.504,7.324
1621557632.183,7.324,13.184,31.738,34.668,45.898
1621557632.187,9.277,13.672,30.762,30.762,104.004
1621557632.191,23.438,14.160,28.320,25.391,100.098
1621557632.195,20.508,13.184,26.367,20.020,71.289
1621557632.199,10.254,7.324,26.367,23.438,0.000
1621557632.212,16.113,6.836,26.367,21.973,31.250
1621557632.216,10.254,8.789,27.832,15.137,100.098
1621557632.220,14.160,10.254,28.320,20.508,94.727
1621557632.224,20.508,11.230,28.809,25.879,60.547
1621557632.228,27.344,13.184,27.344,26.367,-3.906
1621557632.232,30.762,11.230,24.902,30.273,-28.809
1621557632.236,24.902,7.324,26.367,38.574,-1.465
1621557632.239,27.832,7.812,24.414,41.504,-54.688
1621557632.243,32.715,8.789,22.949,41.992,-17.090
1621557632.247,33.203,6.836,25.879,42.969,40.039
1621557632.251,34.668,9.766,26.367,44.922,22.949
1621557632.255,36.133,15.137,21.973,42.480,17.090
1621557632.250,37.109,7.324,25.391,45.898,57.129
1621557632.254,41.504,1.465,28.320,45.410,60.059
1621557632.258,41.504,4.395,26.855,41.992,50.293
1621557632.262,45.410,5.859,29.785,47.852,68.359
1621557632.266,45.898,6.836,30.762,50.293,41.504
1621557632.270,41.016,3.418,29.785,46.387,33.691
1621557632.274,45.898,1.465,31.250,43.945,-15.625
1621557632.277,31.738,4.883,32.227,50.293,-51.270
1621557632.281,27.832,2.930,32.715,48.828,-11.719
1621557632.285,25.879,1.465,28.809,37.598,26.367
1621557632.289,27.832,3.906,23.926,34.668,7.324
1621557632.293,25.879,2.930,21.484,30.762,31.250
1621557632.306,19.531,2.930,19.531,27.832,72.266
1621557632.310,28.809,2.441,23.438,21.484,40.039
1621557632.314,20.996,-0.488,23.438,12.695,40.527
1621557632.318,23.926,-0.977,23.438,20.996,38.574
1621557632.322,35.156,1.465,25.391,31.738,21.484
1621557632.326,37.598,1.465,24.902,34.668,26.367
1621557632.330,31.250,4.395,24.902,33.691,18.066
1621557632.333,22.949,6.348,24.414,36.621,-21.484
1621557632.337,23.926,4.395,24.414,42.480,8.301
1621557632.341,30.762,2.930,22.461,40.527,62.500
1621557632.345,16.113,6.836,20.020,22.461,27.344
1621557632.349,21.973,-3.418,20.508,14.648,2.441
1621557632.345,47.363,-14.160,20.996,29.785,1.953
1621557632.349,43.457,-1.465,14.648,29.785,50.293
1621557632.353,41.016,4.395,20.508,30.762,36.133
1621557632.357,43.457,4.883,28.809,33.691,20.508
1621557632.361,41.992,3.906,28.809,34.180,40.039
1621557632.365,39.062,1.465,30.273,45.898,31.250
1621557632.369,38.086,3.906,31.250,44.434,32.227
1621557632.372,35.645,5.859,27.832,32.715,24.902
1621557632.376,43.945,5.859,26.855,36.621,11.230
1621557632.380,43.457,3.906,29.785,41.504,18.066
1621557632.384,42.969,1.953,30.762,40.039,22.461
1621557632.388,47.852,2.441,32.227,38.574,75.195
1621557632.401,43.457,3.418,27.344,37.109,82.520
1621557632.405,36.621,2.441,25.391,39.062,35.645
1621557632.409,38.574,3.906,28.320,33.691,23.926
1621557632.413,33.691,5.371,26.855,29.297,-12.695
1621557632.417,31.250,4.395,27.344,29.785,11.719
1621557632.421,37.598,5.371,28.320,40.039,48.340
1621557632.425,33.691,7.812,29.785,43.457,57.617
1621557632.428,31.738,8.789,29.297,26.855,76.660
1621557632.432,32.715,7.812,27.344,19.531,56.641
1621557632.436,34.180,5.859,23.438,25.391,45.410
1621557632.440,29.785,2.441,26.367,20.996,64.941
1621557632.444,25.391,2.441,36.133,22.949,36.133
1621557632.437,29.785,3.418,36.621,31.250,-31.250
1621557632.441,36.621,4.395,31.250,28.320,4.883
1621557632.445,40.039,4.883,34.668,23.926,32.227
1621557632.449,33.203,4.395,36.621,24.902,32.227
1621557632.453,35.156,0.488,34.180,24.414,13.672
1621557632.457,36.621,3.418,32.227,24.902,1.465
1621557632.461,39.551,9.766,32.715,30.273,27.832
1621557632.464,61.523,8.789,36.621,41.016,43.945
1621557632.468,71.777,11.230,37.109,41.016,29.297
1621557632.472,57.617,13.184,36.621,38.086,15.625
1621557632.476,45.898,10.254,37.109,47.363,40.527
1621557632.480,55.176,9.766,35.156,52.734,21.484
1621557632.494,44.922,11.230,34.668,46.387,18.555
1621557632.498,29.297,10.742,32.715,46.875,-4.883
1621557632.502,28.320,14.160,31.250,52.734,12.695
1621557632.506,39.062,17.578,30.273,48.828,53.223
1621557632.510,47.852,15.137,30.273,43.945,29.297
1621557632.514,36.133,10.742,31.738,42.480,15.625
1621557632.518,19.531,7.812,31.738,40.039,48.828
1621557632.521,18.066,8.789,32.227,34.180,69.824
1621557632.525,20.020,3.418,30.273,26.855,77.637
1621557632.529,17.090,2.441,28.809,20.020,60.059
1621557632.533,10.742,4.395,30.762,24.414,41.016
1621557632.537,5.859,6.348,32.227,21.484,20.020
1621557632.531,-1.465,4.395,31.250,14.648,39.551
1621557632.535,-1.953,1.953,31.738,13.184,12.207
1621557632.539,-0.488,4.395,31.250,13.672,-25.879
1621557632.543,0.488,4.395,29.785,14.648,23.926
1621557632.547,6.348,5.859,26.367,9.277,51.758
1621557632.551,12.695,8.301,24.902,9.277,45.898
1621557632.555,30.762,7.812,27.344,14.648,32.227
1621557632.558,41.992,4.883,27.832,20.996,65.430
1621557632.562,43.945,6.348,25.879,20.996,74.707
1621557632.566,51.758,12.207,22.949,21.973,32.715
1621557632.570,61.035,14.648,25.879,31.738,12.695
1621557632.574,72.754,15.137,31.250,39.551,4.883
1621557632.587,64.453,13.184,35.156,43.945,60.547
1621557632.591,56.641,11.230,35.645,41.016,53.711
1621557632.595,52.246,11.719,30.273,38.086,-62.012
1621557632.599,44.922,10.254,31.250,37.598,-43.457
1621557632.603,50.781,10.742,33.691,31.250,11.230
1621557632.607,54.199,12.695,32.715,27.832,91.797
1621557632.611,43.945,14.160,34.668,20.996,108.887
1621557632.614,38.086,8.789,35.645,31.250,17.578
1621557632.618,44.434,7.324,36.621,39.551,10.742
1621557632.622,49.316,8.301,38.574,38.574,27.832
1621557632.626,46.387,6.348,40.527,40.527,38.086
1621557632.630,33.691,5.859,41.992,42.480,31.738
1621557632.644,29.297,6.836,37.109,50.293,43.457
1621557632.648,27.832,7.812,32.715,45.410,43.945
1621557632.652,20.508,8.789,32.227,33.203,22.461
1621557632.656,0.000,7.324,29.785,29.785,69.336
1621557632.660,-2.930,6.348,27.344,23.926,43.945
1621557632.664,11.230,2.930,33.203,22.949,-12.695
1621557632.668,5.371,-2.441,35.645,19.531,-39.062
1621557632.671,3.906,-3.906,37.109,19.531,-10.254
1621557632.675,16.602,-1.465,40.527,27.832,31.250
1621557632.679,23.438,3.418,37.598,28.809,20.996
1621557632.683,22.949,2.930,32.715,27.832,30.273
1621557632.687,24.902,0.977,30.762,29.785,33.203
1621557632.682,33.691,4.395,30.273,27.832,19.043
1621557632.686,40.527,10.742,23.438,24.902,24.902
1621557632.690,41.992,13.672,22.461,30.762,14.648
1621557632.694,37.109,10.254,27.832,30.273,-21.484
1621557632.698,40.527,8.789,33.691,30.762,26.855
1621557632.702,48.828,9.766,34.180,35.156,36.621
1621557632.706,58.594,9.277,28.320,36.133,32.715
1621557632.709,57.617,11.230,29.297,35.156,25.391
1621557632.713,45.410,11.230,33.691,41.504,-20.508
1621557632.717,46.875,10.254,34.668,41.504,-54.199
1621557632.721,55.664,9.277,32.715,45.898,-38.574
1621557632.725,49.805,13.672,30.273,49.805,30.273
1621557632.719,40.039,16.113,31.250,50.293,18.066
1621557632.723,36.621,11.719,35.645,52.734,11.230
1621557632.727,34.668,8.789,37.109,49.316,-13.672
1621557632.731,41.016,10.254,34.668,45.898,41.016
1621557632.735,41.504,12.695,32.227,41.992,84.473
1621557632.739,39.551,12.695,28.809,33.691,89.355
1621557632.743,40.039,10.742,26.367,36.133,96.680
1621557632.746,43.457,13.184,25.391,36.621,-8.301
1621557632.750,36.133,10.742,28.320,31.250,-1.953
1621557632.754,26.855,8.301,30.273,31.250,79.590
1621557632.758,24.414,10.254,28.320,26.367,91.309
1621557632.762,28.320,9.277,29.297,28.809,22.949
1621557632.775,26.367,5.859,25.879,29.785,-3.418
1621557632.779,28.320,1.465,23.926,25.391,1.465
1621557632.783,24.902,4.395,28.320,22.949,-12.207
1621557632.787,23.926,10.254,26.855,24.902,31.738
1621557632.791,32.227,9.766,24.902,32.227,31.250
1621557632.795,22.949,7.324,24.902,33.691,-20.020
1621557632.799,24.414,8.301,25.391,36.133,15.625
1621557632.802,32.715,14.648,27.832,41.504,69.824
1621557632.806,39.062,15.137,25.879,41.016,55.176
1621557632.810,46.387,8.301,24.902,42.480,98.633
1621557632.814,54.199,9.277,27.344,51.758,121.582
1621557632.818,62.012,13.672,29.297,52.734,46.875
1621557632.812,61.035,16.113,27.344,42.969,20.020
1621557632.816,51.270,17.090,26.367,38.574,9.766
1621557632.820,52.246,20.020,24.902,42.480,-1.953
1621557632.824,46.875,16.113,26.367,48.828,35.645
1621557632.828,51.270,15.137,31.250,51.270,57.129
1621557632.832,67.383,20.508,32.227,55.176,70.801
1621557632.836,58.594,18.066,33.691,55.176,35.156
1621557632.839,45.898,16.602,28.809,42.969,-44.434
1621557632.843,44.434,14.648,26.855,41.504,-0.488
1621557632.847,38.086,12.695,27.344,40.039,33.691
1621557632.851,38.574,8.301,30.762,36.621,-21.484
1621557632.855,42.480,5.859,33.691,41.504,-17.090
1621557632.869,37.598,6.348,29.785,37.109,15.137
1621557632.873,32.227,7.812,26.855,28.809,2.441
1621557632.877,28.320,5.371,29.785,24.902,-33.691
1621557632.881,23.926,0.488,30.762,21.484,-4.395
1621557632.885,20.996,1.953,28.320,18.066,-2.930
1621557632.889,28.320,1.465,28.320,11.719,26.855
1621557632.893,23.926,-1.465,29.297,14.648,53.711
1621557632.896,13.672,-1.465,28.809,19.531,34.668
1621557632.900,22.461,0.977,25.879,22.461,18.555
1621557632.904,24.414,5.371,26.367,26.855,69.336
1621557632.908,24.414,9.277,29.785,27.832,101.074
1621557632.912,36.621,7.812,30.273,25.879,33.203
1621557632.907,50.781,10.742,29.297,28.809,-9.277
1621557632.911,54.199,10.254,29.297,38.086,15.625
1621557632.915,43.457,5.859,29.785,40.039,5.371
1621557632.919,51.270,9.766,29.785,34.180,46.387
1621557632.923,47.363,13.184,28.809,40.527,49.316
1621557632.927,29.297,12.695,24.902,48.828,-0.977
1621557632.931,45.410,15.137,27.344,49.316,95.215
1621557632.934,48.340,17.090,31.738,52.246,75.684
1621557632.938,32.227,14.648,33.691,53.711,10.254
1621557632.942,34.180,11.719,35.156,57.129,53.711
1621557632.946,37.598,14.648,32.227,54.688,31.738
1621557632.950,35.645,13.184,31.738,51.758,-19.531
1621557632.963,39.551,8.301,32.227,51.270,14.648
1621557632.967,42.969,9.766,29.785,44.434,28.809
1621557632.971,47.363,10.742,30.273,50.781,30.273
1621557632.975,43.945,10.742,30.762,45.410,42.480
1621557632.979,34.668,11.719,26.855,31.738,-26.367
1621557632.983,33.691,8.301,26.367,31.250,-21.973
1621557632.987,34.668,6.348,31.738,30.762,32.715
1621557632.990,33.691,5.371,34.668,25.879,69.824
1621557632.994,30.762,3.906,31.250,18.066,116.699
1621557632.998,29.297,6.348,28.809,12.207,63.477
1621557633.002,31.738,5.859,32.715,13.184,-27.832
1621557633.006,27.344,6.836,33.203,17.090,29.785
1621557633.019,29.785,7.812,29.297,22.949,58.594
1621557633.023,35.156,6.836,28.809,27.344,19.531
1621557633.027,29.785,5.859,31.250,29.297,58.105
1621557633.031,37.598,6.348,31.250,35.645,80.078
1621557633.035,34.180,4.395,33.691,41.992,60.059
1621557633.039,32.227,0.977,36.621,49.316,17.578
1621557633.043,48.340,2.441,36.621,54.688,-4.395
1621557633.046,44.434,2.930,36.621,52.734,28.320
1621557633.050,34.668,5.371,35.156,45.898,62.988
1621557633.054,33.203,5.859,33.203,40.039,78.125
1621557633.058,32.227,3.418,34.180,40.527,66.895
1621557633.062,24.902,6.836,36.133,49.316,-10.254
1621557633.056,30.273,9.277,34.180,52.246,2.930
1621557633.060,41.016,10.742,29.297,48.828,22.461
1621557633.064,48.828,9.277,29.297,49.316,0.488
1621557633.068,50.293,13.672,32.227,52.734,30.762
1621557633.072,44.434,19.531,31.250,41.504,-2.930
1621557633.076,41.992,16.602,31.738,35.645,-22.949
1621557633.080,40.527,11.230,33.203,41.504,-8.301
1621557633.083,46.387,10.742,32.227,36.621,3.418
1621557633.087,42.969,14.160,33.203,34.668,29.297
1621557633.091,29.297,13.672,33.203,39.551,32.715
1621557633.095,30.273,10.254,33.203,27.344,30.762
1621557633.099,37.109,9.766,35.645,22.461,20.020
1621557633.094,35.156,11.230,33.203,33.203,36.621
1621557633.098,35.645,6.348,28.809,30.273,58.105
1621557633.102,34.668,8.789,28.809,24.902,36.621
1621557633.106,25.879,15.625,30.273,21.973,-5.371
1621557633.110,35.156,13.184,31.250,31.250,-26.367
1621557633.114,43.457,15.625,27.344,41.992,12.207
1621557633.118,39.551,16.602,24.902,35.156,5.859
1621557633.121,35.645,15.137,30.273,39.062,18.066
1621557633.125,38.086,13.184,32.227,39.062,49.316
1621557633.129,49.805,11.230,29.785,39.551,30.273
1621557633.133,35.645,15.625,32.227,42.969,-1.465
1621557633.137,15.137,16.113,34.668,43.457,-26.367
1621557633.150,30.762,16.113,30.762,50.781,-12.207
1621557633.154,39.551,14.160,31.250,48.340,19.043
1621557633.158,25.879,10.742,34.180,35.156,63.965
1621557633.162,16.602,11.230,34.180,26.367,71.289
1621557633.166,14.648,9.277,34.668,28.320,-29.297
1621557633.170,24.414,10.742,30.762,33.203,16.602
1621557633.174,27.832,17.578,29.297,27.832,69.336
1621557633.177,39.062,20.508,34.180,25.879,-9.766
1621557633.181,45.410,20.996,37.598,27.832,49.316
1621557633.185,43.945,19.531,36.621,29.785,66.895
1621557633.189,51.270,20.020,35.156,28.809,37.109
1621557633.193,46.387,23.438,33.691,25.391,20.020
1621557633.188,41.016,23.438,29.297,25.391,15.137
1621557633.192,41.504,18.066,30.273,28.320,55.664
1621557633.196,34.180,17.090,29.785,23.438,45.898
1621557633.200,41.016,16.113,26.855,27.344,-1.465
1621557633.204,45.898,16.602,28.320,37.598,9.766
1621557633.208,32.227,15.625,31.250,41.504,38.574
1621557633.212,32.227,13.184,33.691,50.781,21.484
1621557633.215,38.574,19.043,32.227,48.340,52.246
1621557633.219,37.109,17.090,33.203,40.039,99.121
1621557633.223,36.621,16.602,34.668,45.410,8.789
1621557633.227,41.504,20.508,33.203,45.898,-35.156
1621557633.231,47.363,22.949,31.250,41.016,63.477
1621557633.245,45.410,20.020,31.738,45.898,38.086
1621557633.249,34.180,16.113,36.133,46.387,-50.781
1621557633.253,25.879,20.508,34.668,38.086,-41.992
1621557633.257,15.625,17.578,29.297,32.715,28.809
1621557633.261,20.508,11.719,26.367,31.738,46.387
1621557633.265,20.020,10.254,30.273,30.273,41.016
1621557633.269,7.812,9.766,33.691,29.785,64.941
1621557633.272,6.836,9.766,32.227,33.691,47.363
1621557633.276,20.996,11.230,33.691,35.645,-4.395
1621557633.280,30.273,13.672,33.203,41.504,-6.836
1621557633.284,34.180,12.695,28.320,45.898,9.766
1621557633.288,33.203,12.207,32.227,41.992,59.082
1621557633.281,32.715,14.160,31.738,35.156,58.594
1621557633.285,32.715,13.672,26.367,21.973,15.625
1621557633.289,31.250,14.160,24.414,23.926,25.391
1621557633.293,39.062,16.602,24.414,29.785,52.734
1621557633.297,44.434,14.160,25.879,26.855,56.641
1621557633.301,40.527,17.578,28.809,27.832,36.621
1621557633.305,49.316,20.508,25.391,27.344,35.156
1621557633.308,56.641,15.625,24.414,34.668,26.367
1621557633.312,43.457,14.160,31.738,45.410,-34.668
1621557633.316,50.293,11.719,31.738,42.969,11.719
1621557633.320,61.035,13.184,29.785,35.645,48.340
1621557633.324,46.387,16.602,27.832,27.344,11.230
1621557633.337,48.340,12.695,29.297,25.391,-11.719
1621557633.341,51.758,11.719,32.227,31.738,-9.766
1621557633.345,32.715,19.043,32.715,34.668,-24.414
1621557633.349,30.273,23.926,28.809,34.668,-78.613
1621557633.353,28.320,18.066,27.344,41.992,-48.828
1621557633.357,20.508,11.230,28.809,46.875,49.805
1621557633.361,27.832,10.254,28.320,39.062,24.902
1621557633.364,34.180,12.207,29.297,37.598,11.719
1621557633.368,30.273,14.648,31.738,45.898,41.016
1621557633.372,13.184,17.090,35.645,42.480,49.805
1621557633.376,4.395,15.625,33.203,32.715,58.594
1621557633.380,4.883,15.625,28.809,28.320,102.539
1621557633.376,3.906,11.719,31.250,31.738,57.617
1621557633.380,13.672,13.672,29.297,32.227,34.668
1621557633.384,35.645,15.137,25.879,34.668,101.562
1621557633.388,43.945,15.625,26.855,44.922,42.480
1621557633.392,35.156,19.531,27.344,41.992,9.277
1621557633.396,32.715,20.508,28.320,34.180,42.480
1621557633.400,34.668,22.461,27.344,30.762,31.738
1621557633.403,34.668,23.438,23.438,22.461,41.504
1621557633.407,28.320,21.484,22.461,16.113,57.617
1621557633.411,24.414,21.973,20.508,17.090,36.621
1621557633.415,34.180,23.926,17.090,12.207,11.719
1621557633.419,33.203,24.414,17.090,11.230,56.641
1621557633.431,35.156,20.508,24.414,20.996,81.543
1621557633.435,41.992,15.137,32.227,27.344,19.531
1621557633.439,37.598,20.020,30.762,29.297,8.301
1621557633.443,36.133,25.391,28.809,26.367,0.488
1621557633.447,36.133,26.855,29.785,25.879,-18.555
1621557633.451,38.574,28.320,28.809,30.762,-7.812
1621557633.455,42.480,31.738,25.879,35.156,22.461
1621557633.458,42.969,28.809,28.320,44.434,46.387
1621557633.462,38.574,26.855,31.738,45.410,2.930
1621557633.466,38.574,27.832,30.273,39.551,-20.020
1621557633.470,45.898,28.809,30.762,44.922,-5.371
1621557633.474,27.832,30.273,31.250,48.828,29.297
1621557633.470,13.672,30.762,32.715,47.852,27.832
1621557633.474,14.160,31.738,30.762,47.363,-10.742
1621557633.478,11.719,32.715,30.273,46.875,-3.906
1621557633.482,18.066,32.715,32.715,48.340,56.152
1621557633.486,20.996,32.715,32.715,43.457,108.398
1621557633.490,22.461,33.203,33.203,38.086,99.121
1621557633.494,24.414,32.715,31.250,39.551,54.199
1621557633.497,25.391,29.785,31.250,32.227,-9.766
1621557633.501,23.438,28.809,35.645,28.809,33.691
1621557633.505,25.391,32.715,33.203,27.344,78.613
1621557633.509,26.855,31.738,25.879,24.902,30.273
1621557633.513,34.668,32.715,18.555,28.320,0.488
1621557633.526,41.504,33.691,22.461,25.391,41.504
1621557633.530,38.574,28.809,32.227,20.996,20.508
1621557633.534,35.645,28.320,27.344,14.160,-23.438
1621557633.538,39.551,30.273,24.414,6.836,18.066
1621557633.542,36.621,31.738,27.344,10.742,36.621
1621557633.546,38.086,37.598,28.320,6.836,21.973
1621557633.550,43.945,39.551,27.832,10.254,62.500
1621557633.553,56.641,36.133,29.297,33.691,27.344
1621557633.557,65.918,35.156,32.715,40.527,-47.363
1621557633.561,50.293,38.574,32.715,34.668,0.000
1621557633.565,42.480,35.645,30.273,32.715,1.465
1621557633.569,39.551,32.227,31.738,41.504,-17.578
1621557633.562,28.809,29.785,27.344,51.758,-22.461
1621557633.566,25.879,28.809,28.809,49.805,-8.301
1621557633.570,40.039,31.250,36.133,42.480,28.809
1621557633.574,27.832,34.180,34.668,44.434,53.711
1621557633.578,5.371,30.273,35.156,54.688,44.434
1621557633.582,-4.395,25.391,37.109,45.898,21.484
1621557633.586,0.488,27.344,37.598,40.039,2.441
1621557633.589,13.672,32.227,36.621,47.363,-6.836
1621557633.593,14.160,37.598,36.133,44.434,33.203
1621557633.597,5.371,30.273,37.598,40.527,87.402
1621557633.601,7.324,29.785,36.133,32.227,90.332
1621557633.605,20.508,30.762,32.715,28.320,34.668
1621557633.619,23.926,26.367,31.250,30.762,23.926
1621557633.623,20.996,26.855,33.203,34.180,19.531
1621557633.627,31.738,25.391,28.809,41.992,9.766
1621557633.631,31.250,23.926,23.438,39.062,-1.465
1621557633.635,26.367,26.367,24.902,27.832,59.082
1621557633.639,28.320,27.832,22.949,20.508,105.957
1621557633.643,33.691,26.367,22.949,12.695,52.734
1621557633.646,39.062,27.344,24.414,1.953,19.043
1621557633.650,41.016,32.715,24.414,0.000,15.625
1621557633.654,38.086,38.086,23.438,0.977,41.992
1621557633.658,37.598,36.133,25.391,2.930,74.219
1621557633.662,47.852,28.320,27.832,9.277,37.109
1621557633.656,50.781,30.762,26.855,9.766,9.277
1621557633.660,58.105,33.203,27.832,17.090,17.578
1621557633.664,58.105,35.156,30.273,28.809,50.293
1621557633.668,49.316,36.133,34.180,35.156,90.332
1621557633.672,53.223,34.180,32.715,42.969,78.613
1621557633.676,62.012,31.250,29.297,46.875,46.875
1621557633.680,58.594,30.762,31.250,46.387,37.598
1621557633.683,34.180,26.855,36.133,57.617,41.504
1621557633.687,32.715,24.414,38.086,63.965,45.898
1621557633.691,33.691,25.391,33.203,68.359,13.672
1621557633.695,12.695,25.391,34.180,75.195,-24.414
1621557633.699,20.020,23.926,37.598,77.148,-45.410
1621557633.712,27.344,25.879,37.598,71.289,-23.438
1621557633.716,28.320,26.855,31.738,59.082,24.902
1621557633.720,25.879,29.785,26.367,51.758,21.484
1621557633.724,23.438,28.809,28.809,49.316,37.598
1621557633.728,30.273,20.996,31.250,49.316,26.367
1621557633.732,39.551,23.926,32.715,45.898,13.184
1621557633.736,44.434,26.367,32.715,42.969,60.547
1621557633.739,51.270,26.367,33.691,39.551,44.922
1621557633.743,45.898,26.855,36.133,36.133,1.465
1621557633.747,37.109,26.367,35.156,41.016,-14.648
1621557633.751,37.598,31.250,34.668,38.574,10.742
1621557633.755,42.480,33.691,33.203,30.762,42.969
1621557633.751,48.828,29.297,31.250,36.621,23.438
1621557633.755,52.734,31.250,28.320,32.227,23.926
1621557633.759,51.270,31.738,27.344,29.297,35.645
1621557633.763,54.688,29.297,24.902,28.320,78.125
1621557633.767,54.688,28.320,24.414,19.043,20.508
1621557633.771,50.781,24.902,25.391,15.137,-7.324
1621557633.775,56.152,27.344,24.414,15.625,-16.602
1621557633.778,57.617,29.785,31.738,19.043,-32.227
1621557633.782,42.969,30.762,36.621,16.602,21.973
1621557633.786,30.762,27.344,37.598,20.996,-13.672
1621557633.790,28.320,20.508,37.109,27.344,-21.973
1621557633.794,24.902,20.508,37.109,29.297,14.160
1621557633.807,26.855,21.484,37.598,33.691,21.484
1621557633.811,40.527,22.461,29.297,37.598,22.949
1621557633.815,36.133,21.484,26.855,41.992,61.523
1621557633.819,23.438,22.461,26.367,39.062,76.660
1621557633.823,35.645,24.902,18.555,36.621,33.203
1621557633.827,38.574,25.879,24.414,37.598,33.691
1621557633.831,37.598,21.484,33.691,36.621,90.332
1621557633.834,42.480,24.414,34.180,35.645,78.613
1621557633.838,37.598,27.344,32.227,45.410,26.855
1621557633.842,24.414,25.879,32.227,50.293,62.500
1621557633.846,32.715,29.297,31.738,37.598,74.219
1621557633.850,34.180,29.297,32.227,33.203,5.859
1621557633.844,32.227,29.785,30.762,37.598,14.160
1621557633.848,39.062,27.832,30.762,40.039,67.871
1621557633.852,35.156,26.855,33.203,36.133,21.973
1621557633.856,23.926,20.508,34.668,36.621,12.695
1621557633.860,21.484,19.531,37.109,40.039,17.090
1621557633.864,29.785,22.461,35.156,40.527,0.977
1621557633.868,33.203,22.461,33.203,36.133,-46.875
1621557633.871,49.316,27.344,34.180,26.855,-57.617
1621557633.875,51.270,30.273,35.156,29.785,22.461
1621557633.879,34.180,34.180,33.203,28.320,30.273
1621557633.883,37.109,36.621,32.227,21.484,-36.133
1621557633.887,41.992,37.109,33.691,15.137,10.254
