timestamps,TP9,AF7,AF8,TP10,Right AUX
1620953423.132,15.137,25.391,35.156,31.250,0.977
1620953423.136,13.672,23.926,29.297,28.320,-17.578
1620953423.140,19.531,25.391,35.156,31.738,23.926
1620953423.144,31.250,24.902,38.086,30.273,88.379
1620953423.148,44.922,25.879,40.527,30.273,-11.230
1620953423.152,52.246,35.156,38.086,25.391,-55.176
1620953423.156,42.969,39.062,44.922,26.855,0.977
1620953423.159,15.625,28.809,48.828,24.902,26.855
1620953423.163,13.184,33.203,43.457,33.691,17.090
1620953423.167,16.113,45.410,34.180,39.062,0.977
1620953423.171,14.160,36.621,29.785,29.297,16.602
1620953423.175,20.996,36.621,39.551,36.133,45.410
1620953423.188,25.391,47.363,42.969,35.645,36.133
1620953423.192,25.879,41.016,39.062,28.809,44.434
1620953423.196,28.809,35.156,46.387,27.832,47.363
1620953423.200,27.344,41.016,49.316,25.879,-9.766
1620953423.204,34.668,38.086,41.992,25.391,13.184
1620953423.208,39.551,34.180,42.969,24.902,37.598
1620953423.212,32.227,41.016,43.457,21.973,-13.672
1620953423.215,26.855,41.016,48.828,19.531,-22.949
1620953423.219,17.090,28.809,47.363,12.207,5.859
1620953423.223,16.113,28.320,44.434,20.996,-3.418
1620953423.227,11.230,29.297,39.551,17.090,-14.648
1620953423.231,4.395,28.320,33.203,-1.953,19.043
1620953423.225,24.414,31.738,40.039,12.695,23.926
1620953423.229,34.668,30.273,41.992,26.367,0.977
1620953423.233,39.551,31.250,38.086,39.551,29.297
1620953423.237,35.156,30.273,37.109,38.574,12.207
1620953423.241,21.973,27.832,36.133,15.137,65.918
1620953423.245,39.062,37.109,43.945,30.762,87.402
1620953423.249,62.500,46.875,53.223,61.035,17.578
1620953423.252,51.270,35.156,47.363,48.340,13.672
1620953423.256,30.762,25.879,41.504,29.785,65.918
1620953423.260,22.949,27.832,40.527,30.762,48.340
1620953423.264,21.484,22.461,38.086,23.926,-41.504
1620953423.268,33.691,26.367,40.039,20.508,2.441
1620953423.282,42.969,38.086,46.387,23.438,30.762
1620953423.286,19.043,38.574,41.504,16.602,36.621
1620953423.290,10.742,40.527,40.039,26.855,47.363
1620953423.294,21.973,38.086,41.016,21.973,65.430
1620953423.298,18.066,39.551,41.992,15.137,50.781
1620953423.302,23.926,42.480,43.945,26.855,45.898
1620953423.306,20.508,37.598,36.133,29.297,44.434
1620953423.309,11.719,37.109,33.203,31.738,-17.578
1620953423.313,19.043,31.738,35.645,35.156,14.648
1620953423.317,9.766,24.902,36.133,25.391,42.480
1620953423.321,-2.441,20.996,33.691,11.230,23.438
1620953423.325,7.324,23.926,35.645,23.926,53.711
1620953423.320,11.719,26.367,32.227,28.320,33.691
1620953423.324,3.906,24.414,25.879,7.324,12.207
1620953423.328,13.672,23.926,27.344,5.371,15.137
1620953423.332,13.184,20.508,26.855,16.602,2.441
1620953423.336,12.695,17.090,31.738,25.879,27.344
1620953423.340,14.648,17.090,34.668,22.461,49.316
1620953423.344,11.230,16.113,34.668,22.461,29.785
1620953423.347,21.973,20.996,28.320,28.809,13.672
1620953423.351,39.062,31.250,30.762,35.645,53.223
1620953423.355,34.668,26.855,40.039,33.203,68.848
1620953423.359,23.926,20.508,38.086,20.996,-3.906
1620953423.363,22.949,21.484,32.227,12.207,-12.695
1620953423.377,20.508,23.438,34.668,15.137,20.508
1620953423.381,15.137,26.367,32.227,17.090,0.488
1620953423.385,7.812,30.273,28.809,9.277,0.977
1620953423.389,8.789,27.832,35.645,15.625,56.641
1620953423.393,15.137,26.367,45.898,25.879,57.617
1620953423.397,17.578,20.996,49.316,22.949,42.480
1620953423.401,25.391,29.297,53.711,21.484,80.566
1620953423.404,18.555,30.273,54.688,18.555,40.527
1620953423.408,15.137,22.461,44.434,22.461,21.484
1620953423.412,25.391,27.832,41.016,30.273,-8.789
1620953423.416,24.902,35.156,34.668,17.578,-31.250
1620953423.420,13.672,30.273,32.715,5.371,-10.742
1620953423.415,5.371,22.949,34.180,0.977,-2.441
1620953423.419,13.184,24.414,33.203,3.906,62.988
1620953423.423,22.461,28.809,40.039,15.625,127.441
1620953423.427,0.488,29.297,40.039,18.555,73.730
1620953423.431,-8.789,31.738,31.738,17.090,47.852
1620953423.435,18.555,40.527,32.715,20.508,88.867
1620953423.439,28.320,38.086,32.227,14.160,40.039
1620953423.442,28.320,37.598,32.715,13.184,-8.301
1620953423.446,30.762,41.016,39.551,26.855,-0.488
1620953423.450,28.809,35.156,38.086,28.320,3.906
1620953423.454,40.527,43.457,39.551,25.879,8.789
1620953423.458,28.320,46.387,34.668,15.625,-21.484
1620953423.469,15.625,41.992,34.180,12.695,-1.953
1620953423.473,30.762,45.410,47.363,23.926,0.488
1620953423.477,17.090,41.504,45.898,21.484,-57.129
1620953423.481,2.441,29.785,37.598,14.648,-47.363
1620953423.485,4.395,29.785,30.762,2.441,-15.137
1620953423.489,22.949,41.504,37.598,23.926,43.945
1620953423.493,24.902,38.574,38.086,37.109,47.852
1620953423.496,9.277,35.156,34.668,25.391,3.906
1620953423.500,2.441,38.086,41.016,22.461,41.992
1620953423.504,-5.859,34.180,35.156,15.137,64.941
1620953423.508,-1.953,40.527,36.621,21.973,82.031
1620953423.512,7.324,39.062,43.945,28.809,35.645
1620953423.507,11.230,44.922,42.480,23.438,-9.766
1620953423.511,12.207,43.945,44.434,16.602,-41.504
1620953423.515,14.648,32.227,33.203,16.113,0.977
1620953423.519,21.484,31.738,23.438,17.090,67.383
1620953423.523,21.484,36.133,24.902,9.766,62.012
1620953423.527,19.531,40.039,31.250,12.695,66.406
1620953423.531,24.414,36.621,34.180,17.090,60.547
1620953423.534,33.203,40.039,32.715,20.996,-0.977
1620953423.538,38.086,41.992,35.156,22.949,-13.672
1620953423.542,34.668,33.691,37.598,21.973,34.180
1620953423.546,31.738,33.691,37.598,28.809,73.242
1620953423.550,33.691,36.621,31.250,31.738,39.551
1620953423.563,23.438,34.180,27.832,30.762,22.461
1620953423.567,25.391,35.645,24.414,26.367,39.551
1620953423.571,45.410,37.109,20.996,26.855,-10.254
1620953423.575,39.551,33.691,23.926,23.926,-44.922
1620953423.579,15.625,37.598,29.297,23.438,-8.789
1620953423.583,20.508,41.016,36.621,37.109,-1.953
1620953423.587,28.809,34.180,43.457,41.016,-31.738
1620953423.590,25.391,32.715,53.711,40.039,-46.875
1620953423.594,16.113,32.227,55.176,40.039,-7.324
1620953423.598,8.789,33.203,47.363,33.203,-6.348
1620953423.602,7.812,36.621,43.457,26.855,-42.480
1620953423.606,16.602,34.668,38.574,34.668,-33.691
1620953423.602,29.297,37.598,38.574,43.945,32.227
1620953423.606,16.602,40.527,37.109,34.180,0.977
1620953423.610,-2.930,33.203,27.344,17.578,-3.906
1620953423.614,9.277,34.180,29.785,24.414,47.852
1620953423.618,23.926,34.180,32.715,38.086,45.898
1620953423.622,25.879,41.992,28.809,32.227,19.531
1620953423.626,28.320,42.480,32.227,21.973,46.875
1620953423.629,28.809,39.551,29.297,22.461,116.699
1620953423.633,34.180,42.480,28.809,25.391,103.027
1620953423.637,37.598,31.250,24.902,19.531,23.438
1620953423.641,33.691,31.250,22.461,14.160,-17.578
1620953423.645,30.273,38.574,29.785,17.090,-39.551
1620953423.658,40.527,38.086,29.297,24.902,-11.719
1620953423.662,46.387,40.527,28.320,30.273,25.391
1620953423.666,39.062,45.898,32.227,25.391,20.020
1620953423.670,29.297,41.992,30.762,16.602,17.090
1620953423.674,30.762,34.668,32.227,28.320,-21.973
1620953423.678,35.645,38.574,35.645,33.203,-38.086
1620953423.682,37.109,38.574,39.062,19.531,32.715
1620953423.685,33.203,34.668,40.039,12.207,26.367
1620953423.689,26.855,31.250,39.551,20.508,0.000
1620953423.693,38.086,31.738,45.410,47.363,21.484
1620953423.697,36.621,34.180,42.969,38.574,66.406
1620953423.701,35.645,37.598,43.457,27.832,72.754
1620953423.694,38.086,37.598,44.434,44.922,60.059
1620953423.698,24.414,39.062,32.715,41.016,68.848
1620953423.702,11.719,37.109,24.414,26.367,49.805
1620953423.706,34.180,35.645,29.785,15.625,38.086
1620953423.710,31.738,41.504,34.668,17.578,-32.227
1620953423.714,13.184,42.480,30.273,20.020,-76.172
1620953423.718,18.555,44.434,33.691,19.531,-56.641
1620953423.721,0.000,44.434,39.062,16.602,1.465
1620953423.725,-11.719,33.691,31.738,6.348,19.531
1620953423.729,-8.301,37.109,25.391,6.348,-1.953
1620953423.733,1.465,39.551,28.320,18.066,24.902
1620953423.737,12.695,37.109,37.109,26.855,68.359
1620953423.752,12.695,38.574,34.668,22.461,85.938
1620953423.756,19.043,40.527,27.832,21.484,58.594
1620953423.760,33.691,37.109,36.621,30.762,63.477
1620953423.764,43.945,39.062,18.555,34.180,22.949
1620953423.768,41.016,41.504,-62.500,25.391,-19.531
1620953423.772,37.109,42.969,-122.070,26.367,-6.836
1620953423.776,28.320,50.293,-142.090,27.832,35.156
1620953423.779,17.090,39.551,-151.367,18.555,35.156
1620953423.783,25.391,41.016,-139.160,27.344,14.160
1620953423.787,24.902,55.664,-129.883,30.762,22.461
1620953423.791,21.973,57.129,-125.000,30.762,-32.227
1620953423.795,29.785,59.082,-116.211,37.109,-16.113
1620953423.788,20.020,60.547,-118.652,21.973,42.480
1620953423.792,29.297,64.941,-108.887,21.973,44.922
1620953423.796,37.598,60.059,-83.008,36.133,8.789
1620953423.800,23.926,60.059,-72.754,30.273,44.434
1620953423.804,12.207,62.500,-82.031,22.949,-3.906
1620953423.808,7.812,46.387,-82.520,19.531,-27.832
1620953423.812,1.953,47.363,-80.078,3.906,40.039
1620953423.815,-2.930,55.176,-67.871,8.301,36.621
1620953423.819,2.930,55.664,-52.246,8.789,41.016
1620953423.823,2.441,58.105,-53.711,-8.789,73.730
1620953423.827,2.441,52.734,-66.406,-12.695,46.875
1620953423.831,9.766,47.363,-63.965,-0.977,13.184
1620953423.844,19.531,53.711,-52.246,5.859,7.812
1620953423.848,29.297,62.500,-42.969,11.719,13.184
1620953423.852,28.809,63.965,-30.762,21.484,25.391
1620953423.856,22.461,53.711,-24.414,29.785,36.133
1620953423.860,15.625,50.781,-28.809,30.762,20.020
1620953423.864,15.137,50.781,-19.531,35.156,-7.324
1620953423.868,9.766,47.363,-13.184,27.832,23.926
1620953423.871,0.000,45.410,-20.996,16.602,40.527
1620953423.875,20.020,47.852,-14.648,40.039,-4.395
1620953423.879,32.227,46.387,-10.742,39.551,12.207
1620953423.883,30.762,39.551,-13.184,23.926,50.781
1620953423.887,24.902,37.598,-8.789,28.320,82.520
1620953423.883,18.555,43.945,3.418,30.762,12.207
1620953423.887,20.996,46.387,4.395,30.762,-32.227
1620953423.891,11.719,42.969,3.418,22.461,-3.906
1620953423.895,11.230,47.363,5.859,24.902,10.742
1620953423.899,13.672,42.480,7.324,32.227,36.621
1620953423.903,5.859,30.273,5.859,21.484,-41.504
1620953423.907,10.742,40.039,7.324,17.090,-14.648
1620953423.910,14.160,38.574,6.836,15.137,-7.324
1620953423.914,12.207,25.391,5.859,13.672,-9.277
1620953423.918,7.324,39.551,10.742,17.090,51.270
1620953423.922,14.160,34.668,14.160,15.625,31.250
1620953423.926,22.461,29.297,5.859,8.301,29.297
1620953423.939,16.602,33.691,-0.977,-2.930,20.020
1620953423.943,20.020,37.598,0.000,-0.488,32.227
1620953423.947,20.508,40.039,-3.418,-3.906,27.832
1620953423.951,10.742,34.668,-0.977,-17.090,45.898
1620953423.955,10.254,31.738,1.953,-5.859,42.969
1620953423.959,13.184,31.738,8.789,6.836,16.602
1620953423.963,12.207,34.180,16.113,7.324,5.859
1620953423.966,16.113,31.250,23.926,12.207,-13.672
1620953423.970,19.531,32.715,31.250,21.973,-7.812
1620953423.974,24.414,36.133,28.809,32.715,41.992
1620953423.978,29.297,32.715,24.902,43.457,43.945
1620953423.982,20.508,32.715,23.438,44.922,11.230
1620953423.975,10.742,33.203,21.973,40.527,30.762
1620953423.979,9.277,37.109,22.461,37.109,46.387
1620953423.983,16.602,35.645,19.531,38.086,68.848
1620953423.987,26.855,34.668,23.926,37.109,45.410
1620953423.991,28.809,38.574,33.203,29.297,-29.297
1620953423.995,23.926,35.645,33.691,33.691,-52.246
1620953423.999,26.855,36.621,38.086,42.480,-39.551
1620953424.002,26.367,38.574,43.945,42.969,24.902
1620953424.006,20.508,31.738,42.480,35.156,16.113
1620953424.010,27.344,31.250,42.480,31.250,-51.270
1620953424.014,33.203,34.668,41.504,34.180,-13.184
1620953424.018,19.043,38.574,35.156,37.109,0.488
1620953424.032,16.602,40.039,33.203,29.785,10.254
1620953424.036,18.066,36.133,32.715,12.207,53.223
1620953424.040,6.836,35.156,31.250,13.184,54.688
1620953424.044,20.996,42.480,34.180,27.832,60.059
1620953424.048,20.508,43.945,33.203,20.020,66.895
1620953424.052,12.695,41.504,34.668,7.812,41.992
1620953424.056,22.461,41.016,42.480,14.648,30.762
1620953424.059,31.250,44.922,47.363,21.484,2.930
1620953424.063,22.949,42.480,41.016,12.207,33.691
1620953424.067,10.742,37.598,29.785,-1.953,40.527
1620953424.071,15.137,38.574,36.621,8.301,20.996
1620953424.075,24.902,36.133,43.945,20.020,57.617
1620953424.070,22.949,38.086,36.133,19.043,53.711
1620953424.074,15.137,41.504,36.133,16.602,29.785
1620953424.078,22.461,40.527,42.969,29.785,29.785
1620953424.082,32.227,40.527,34.180,44.434,46.875
1620953424.086,31.250,37.598,27.344,40.527,21.973
1620953424.090,37.598,35.645,39.062,37.109,-10.254
1620953424.094,24.902,40.527,37.598,26.855,52.246
1620953424.097,17.090,41.992,34.180,30.273,23.926
1620953424.101,34.180,38.574,45.410,39.551,-1.953
1620953424.105,34.668,42.969,50.293,32.227,39.062
1620953424.109,22.461,38.574,40.527,23.926,69.824
1620953424.113,21.484,33.691,27.832,27.344,68.848
1620953424.125,36.621,33.691,30.273,34.668,11.719
1620953424.129,37.598,41.992,36.133,36.133,-5.371
1620953424.133,14.648,40.527,39.062,30.762,23.438
1620953424.137,17.090,42.480,41.016,34.668,-10.742
1620953424.141,36.621,52.246,43.945,40.039,3.418
1620953424.145,45.898,44.434,43.945,36.133,38.086
1620953424.149,37.109,30.762,34.668,19.043,38.086
1620953424.152,16.602,32.715,33.203,8.301,34.668
1620953424.156,12.695,41.504,37.598,19.531,48.340
1620953424.160,12.207,36.621,36.621,12.207,6.836
1620953424.164,2.441,32.715,30.273,0.000,-53.711
1620953424.168,-9.277,32.227,23.438,-4.395,30.273
1620953424.164,-0.488,35.645,19.043,6.348,50.293
1620953424.168,14.648,40.527,27.344,25.879,0.977
1620953424.172,10.254,39.551,29.785,24.414,16.602
1620953424.176,2.441,40.527,23.438,17.578,42.969
1620953424.180,10.742,44.922,31.250,29.297,61.523
1620953424.184,21.973,45.410,37.109,42.480,7.324
1620953424.188,27.344,40.527,35.645,33.691,-66.895
1620953424.191,39.062,46.387,37.598,31.250,-39.551
1620953424.195,28.320,41.016,37.598,31.738,65.918
1620953424.199,18.555,33.691,37.598,30.273,87.402
1620953424.203,27.344,35.645,34.668,33.203,30.762
1620953424.207,21.973,33.691,26.855,18.066,19.043
1620953424.220,23.926,34.180,35.156,16.602,21.484
1620953424.224,39.062,36.621,41.992,33.691,41.504
1620953424.228,34.180,39.551,40.039,34.668,36.621
1620953424.232,35.156,40.039,41.992,22.949,5.371
1620953424.236,29.297,43.945,41.992,20.996,-4.395
1620953424.240,22.949,48.340,40.527,22.949,6.348
1620953424.244,32.715,42.480,35.156,16.602,20.996
1620953424.247,38.574,39.551,37.598,20.020,-39.551
1620953424.251,41.016,40.039,33.691,17.090,-7.324
1620953424.255,38.574,42.480,33.203,26.855,11.230
1620953424.259,28.809,38.086,42.480,38.086,-22.949
1620953424.263,20.996,36.133,37.109,32.227,-31.250
1620953424.257,25.391,42.969,33.203,23.926,-30.762
1620953424.261,22.461,40.039,30.762,21.484,6.836
1620953424.265,20.020,37.109,28.320,30.762,18.555
1620953424.269,23.926,37.109,31.250,35.645,5.859
1620953424.273,11.719,36.133,30.762,19.531,30.273
1620953424.277,9.277,33.203,31.250,12.695,42.480
1620953424.281,12.695,31.250,37.109,23.926,59.570
1620953424.284,15.137,35.645,37.598,42.480,50.781
1620953424.288,17.090,35.156,42.969,53.711,15.137
1620953424.292,9.766,31.250,40.527,37.109,44.434
1620953424.296,21.484,33.691,39.062,29.785,44.434
1620953424.300,35.156,32.227,42.969,33.691,-39.062
1620953424.313,40.527,31.738,43.945,31.250,-44.922
1620953424.317,27.344,35.645,41.504,16.602,55.176
1620953424.321,19.531,34.180,36.133,13.672,79.102
1620953424.325,32.715,30.762,37.598,23.438,40.527
1620953424.329,30.762,34.668,37.598,31.738,47.363
1620953424.333,25.391,33.691,38.574,26.855,77.637
1620953424.337,29.785,31.738,37.598,24.414,35.156
1620953424.340,39.062,39.062,33.203,34.180,-13.672
1620953424.344,38.086,36.621,28.320,32.715,-30.762
1620953424.348,40.527,38.574,33.203,30.273,-39.551
1620953424.352,41.504,47.363,35.645,25.879,-11.230
1620953424.356,30.273,33.691,34.668,23.926,6.348
1620953424.350,26.855,30.762,34.668,26.367,35.156
1620953424.354,22.949,37.109,33.203,21.973,-10.254
1620953424.358,14.160,33.691,33.203,12.207,-74.707
1620953424.362,20.996,33.691,31.738,15.625,-7.324
1620953424.366,28.809,37.598,36.133,30.762,27.344
1620953424.370,12.207,35.156,38.574,36.133,11.230
1620953424.374,-2.441,29.785,35.645,36.621,-4.395
1620953424.377,-4.883,30.762,36.621,34.180,20.996
1620953424.381,2.441,29.297,37.598,33.203,63.965
1620953424.385,5.859,26.855,39.551,34.180,82.520
1620953424.389,7.812,33.691,40.039,28.320,55.664
1620953424.393,7.812,32.227,39.551,12.695,56.152
1620953424.407,17.090,30.762,42.480,16.602,54.199
1620953424.411,25.879,35.156,39.062,20.508,10.254
1620953424.415,23.926,35.156,32.715,11.719,10.742
1620953424.419,22.949,32.715,32.227,6.836,-29.297
1620953424.423,34.180,30.762,33.691,11.230,-9.277
1620953424.427,47.852,29.785,33.691,19.531,46.387
1620953424.431,26.855,29.297,34.180,17.090,64.453
1620953424.434,10.742,30.762,33.691,10.742,79.590
1620953424.438,18.555,35.645,31.738,18.555,86.426
1620953424.442,20.020,33.691,27.832,25.879,35.645
1620953424.446,19.531,31.250,29.785,22.461,-12.207
1620953424.450,18.555,31.738,29.785,18.555,-11.719
1620953424.445,15.625,29.785,25.879,15.137,-50.293
1620953424.449,28.320,35.156,32.227,25.391,-63.965
1620953424.453,36.621,39.551,36.621,32.715,-19.043
1620953424.457,24.414,37.598,23.926,15.137,11.230
1620953424.461,21.484,35.645,24.902,13.672,61.035
1620953424.465,39.551,44.922,40.527,42.480,16.113
1620953424.469,24.414,48.828,36.133,42.480,11.230
1620953424.472,10.742,38.574,33.203,32.715,64.941
1620953424.476,12.695,34.668,36.621,24.902,51.270
1620953424.480,21.484,38.574,44.434,27.344,57.129
1620953424.484,21.484,30.273,44.434,28.809,3.418
1620953424.488,9.277,25.879,40.039,20.508,-3.906
1620953424.502,12.695,32.227,45.898,25.879,24.902
1620953424.506,9.277,33.691,42.969,23.926,18.555
1620953424.510,10.742,36.133,40.527,19.043,-6.348
1620953424.514,31.250,40.527,46.387,25.391,23.926
1620953424.518,31.738,46.875,42.480,13.672,9.766
1620953424.522,7.324,43.945,40.527,8.789,-5.371
1620953424.526,5.371,34.668,40.527,15.625,51.270
1620953424.529,12.695,39.062,43.457,20.508,80.566
1620953424.533,-1.465,42.969,38.574,6.836,81.543
1620953424.537,8.789,43.945,38.574,7.324,49.316
1620953424.541,35.156,48.340,45.410,30.762,2.441
1620953424.545,48.340,46.387,42.969,33.691,-6.836
1620953424.538,39.062,42.480,38.574,26.855,25.879
1620953424.542,20.996,37.109,41.992,20.996,1.953
1620953424.546,25.879,35.156,47.363,20.020,11.230
1620953424.550,35.645,33.691,45.410,19.531,84.473
1620953424.554,34.668,38.574,46.875,21.484,88.867
1620953424.558,36.621,42.969,43.457,24.902,37.109
1620953424.562,24.414,40.527,35.156,23.926,14.648
1620953424.565,17.090,42.969,33.691,32.227,15.625
1620953424.569,28.320,42.969,39.551,35.156,11.719
1620953424.573,26.855,41.504,42.969,33.203,18.066
1620953424.577,7.812,38.086,43.945,39.551,-0.977
1620953424.581,3.906,36.133,41.504,39.062,-27.832
1620953424.594,30.273,45.898,43.945,44.922,4.883
1620953424.598,21.484,41.504,41.504,35.156,18.555
1620953424.602,0.488,28.320,34.180,16.602,0.977
1620953424.606,4.395,27.344,29.297,15.625,22.949
1620953424.610,17.090,28.320,29.297,22.949,72.754
1620953424.614,20.508,35.645,37.109,27.344,40.039
1620953424.618,2.441,32.715,36.621,11.230,-13.184
1620953424.621,0.977,29.785,35.645,8.789,-40.039
1620953424.625,12.695,37.109,33.691,17.090,19.043
1620953424.629,20.020,35.156,33.203,13.184,76.172
1620953424.633,28.320,33.203,37.598,11.230,20.508
1620953424.637,23.926,33.691,39.551,18.555,12.207
1620953424.632,13.672,28.809,31.250,23.926,38.086
1620953424.636,27.344,29.785,23.438,26.855,13.672
1620953424.640,50.293,35.156,29.297,29.297,-3.418
1620953424.644,46.875,33.203,27.832,17.578,23.926
1620953424.648,44.434,37.109,26.367,26.367,62.988
1620953424.652,36.133,39.551,27.832,30.762,77.148
1620953424.656,13.184,37.598,25.879,32.227,34.668
1620953424.659,4.395,35.645,22.949,31.738,-28.809
1620953424.663,6.836,33.203,27.344,34.668,42.969
1620953424.667,14.160,38.574,28.809,39.062,41.504
1620953424.671,16.113,41.992,31.250,28.809,-1.953
1620953424.675,15.625,39.551,35.156,25.391,63.965
1620953424.688,15.137,41.504,21.484,27.344,9.766
1620953424.692,22.461,41.016,19.531,33.203,13.184
1620953424.696,30.762,35.645,31.738,40.527,47.852
1620953424.700,26.855,36.133,32.715,34.180,-2.441
1620953424.704,19.043,36.133,25.879,20.508,45.410
1620953424.708,15.137,35.645,22.949,17.090,7.812
1620953424.712,27.344,33.691,29.785,20.996,-34.668
1620953424.715,24.902,28.809,33.691,14.160,41.504
1620953424.719,26.367,33.691,34.180,12.207,63.965
1620953424.723,39.551,33.203,34.180,12.695,74.219
1620953424.727,46.387,31.250,33.203,15.137,39.551
1620953424.731,42.969,35.156,33.203,12.207,-22.461
1620953424.727,31.738,31.250,36.133,16.602,-43.457
1620953424.731,30.273,28.320,40.039,36.621,15.137
1620953424.735,34.180,29.297,37.109,37.109,51.758
1620953424.739,25.391,32.715,35.156,27.832,26.367
1620953424.743,19.043,40.527,44.434,26.855,35.156
1620953424.747,11.719,36.621,48.340,29.785,6.348
1620953424.751,9.277,40.039,45.410,27.832,-8.301
1620953424.754,15.625,51.758,42.480,30.273,0.488
1620953424.758,14.160,45.898,44.434,25.879,14.648
1620953424.762,13.672,37.109,42.480,14.648,16.113
1620953424.766,27.832,36.133,38.086,17.090,-33.203
1620953424.770,31.250,31.250,42.480,22.949,-0.977
1620953424.783,8.789,27.832,45.410,22.949,16.602
1620953424.787,0.488,27.832,41.992,23.438,-35.645
1620953424.791,18.555,30.762,45.898,31.250,-57.617
1620953424.795,17.578,36.133,48.340,35.645,-13.672
1620953424.799,13.672,33.691,43.945,31.738,-8.789
1620953424.803,8.301,30.273,41.016,22.461,12.695
1620953424.807,12.695,29.785,42.480,28.809,90.820
1620953424.810,26.367,28.809,42.480,39.062,28.809
1620953424.814,28.809,29.785,37.598,28.320,-55.664
1620953424.818,22.461,36.621,36.133,15.625,-37.598
1620953424.822,18.555,38.086,41.016,23.926,-13.184
1620953424.826,24.902,33.203,39.551,31.250,27.344
1620953424.819,25.879,30.273,39.062,25.391,30.273
1620953424.823,20.996,36.133,40.527,17.090,8.301
1620953424.827,16.602,36.621,34.668,10.742,13.672
1620953424.831,21.484,33.691,33.691,20.996,51.758
1620953424.835,20.996,34.668,38.086,27.832,71.289
1620953424.839,16.113,37.598,41.504,27.344,-21.484
1620953424.843,13.672,41.016,44.922,24.414,-13.184
1620953424.846,21.484,37.598,42.969,23.926,34.668
1620953424.850,27.832,36.133,39.551,20.996,31.250
1620953424.854,27.344,36.133,39.551,23.438,37.109
1620953424.858,35.645,36.133,41.504,24.414,5.859
1620953424.862,39.551,39.551,38.086,21.973,11.719
1620953424.875,58.105,44.434,38.086,35.645,4.395
1620953424.879,80.078,45.410,41.016,41.016,19.531
1620953424.883,59.082,41.992,38.574,31.738,69.336
1620953424.887,30.273,34.668,31.250,35.156,20.996
1620953424.891,38.574,28.320,31.250,44.434,27.832
1620953424.895,31.250,30.273,32.715,37.109,27.344
1620953424.899,16.113,31.738,27.344,29.785,-8.789
1620953424.902,20.020,35.156,30.273,34.180,19.043
1620953424.906,20.508,39.062,37.109,33.691,19.043
1620953424.910,11.230,36.621,36.621,31.738,4.395
1620953424.914,-1.953,32.715,31.738,24.902,15.625
1620953424.918,-2.441,31.738,27.832,17.090,74.707
1620953424.913,3.418,33.691,30.762,23.438,82.520
1620953424.917,15.137,31.738,35.156,36.621,13.672
1620953424.921,18.555,29.785,33.203,35.645,0.000
1620953424.925,11.719,28.320,28.809,25.391,48.340
1620953424.929,12.207,30.273,22.461,24.414,50.781
1620953424.933,31.738,35.645,24.414,42.480,-15.625
1620953424.937,30.273,32.715,27.344,34.668,-14.160
1620953424.940,17.090,33.691,22.461,19.531,-6.836
1620953424.944,17.090,37.109,18.066,18.555,37.598
1620953424.948,22.949,33.203,26.855,20.020,65.430
1620953424.952,26.367,30.762,32.227,24.414,29.297
1620953424.956,27.832,35.156,28.809,19.043,-19.043
1620953424.969,25.391,38.574,25.879,13.184,-50.781
1620953424.973,30.273,34.180,26.855,20.996,4.395
1620953424.977,46.875,36.621,36.133,35.156,57.129
1620953424.981,43.457,41.016,38.086,29.297,16.602
1620953424.985,30.762,43.457,37.109,21.484,-0.977
1620953424.989,27.344,40.527,31.738,18.066,-27.344
1620953424.993,24.414,37.109,29.785,20.020,9.277
1620953424.996,22.461,33.691,33.203,22.461,94.727
1620953425.000,22.949,32.227,30.273,14.160,66.895
1620953425.004,20.996,30.762,29.297,7.324,2.441
1620953425.008,33.203,28.809,28.320,17.090,14.160
1620953425.012,49.805,32.227,30.762,21.973,7.324
1620953425.008,28.320,31.738,32.715,10.254,-10.742
1620953425.012,9.277,23.926,29.785,9.277,9.277
1620953425.016,0.488,22.949,31.250,22.461,48.828
1620953425.020,-10.742,26.367,32.227,21.484,74.707
1620953425.024,-10.742,23.926,32.715,17.090,27.344
1620953425.028,-0.488,26.367,33.203,22.461,11.230
1620953425.032,18.555,32.715,34.668,28.809,44.922
1620953425.035,16.113,29.297,35.156,37.598,15.137
1620953425.039,-2.930,28.809,33.203,27.832,-36.133
1620953425.043,-4.883,32.715,28.809,16.602,-0.977
1620953425.047,4.883,31.250,35.156,24.414,35.156
1620953425.051,9.277,32.715,41.016,19.531,36.621
1620953425.083,11.719,36.621,39.062,20.508,62.012
1620953425.087,7.324,29.785,34.668,15.137,63.965
1620953425.091,11.719,33.203,32.227,13.184,-36.133
1620953425.095,23.926,36.621,40.039,25.391,-31.738
1620953425.099,27.344,35.156,40.039,27.344,16.602
1620953425.103,39.062,49.316,44.922,33.203,39.551
1620953425.107,37.109,46.875,48.340,30.762,34.668
1620953425.110,30.762,36.621,44.922,32.227,5.859
1620953425.114,38.086,39.062,51.270,42.480,7.812
1620953425.118,25.879,43.945,48.828,35.645,-57.617
1620953425.122,13.184,39.062,40.527,23.926,-43.457
1620953425.126,26.855,38.086,40.039,30.273,17.578
1620953425.102,37.109,40.039,39.551,45.410,52.734
1620953425.106,34.180,41.504,42.969,44.434,60.547
1620953425.110,29.785,44.434,42.969,27.344,27.832
1620953425.114,27.344,45.410,41.016,26.367,39.551
1620953425.118,31.738,46.387,39.551,37.598,19.043
1620953425.122,26.855,42.969,32.227,29.297,67.383
1620953425.126,22.461,44.922,32.227,17.090,94.238
1620953425.129,33.691,48.340,31.738,25.391,42.969
1620953425.133,38.574,39.062,30.273,24.414,15.137
1620953425.137,50.293,36.621,30.762,16.602,59.082
1620953425.141,47.363,39.062,33.691,18.555,53.711
1620953425.145,-4.883,37.598,32.227,8.301,52.734
1620953425.157,-22.949,40.039,35.645,16.113,62.988
1620953425.161,-4.883,39.062,38.086,20.020,40.527
1620953425.165,18.066,42.969,41.016,20.020,11.719
1620953425.169,25.879,41.504,45.410,21.484,3.906
1620953425.173,19.043,42.480,41.016,18.555,54.199
1620953425.177,35.156,51.758,48.340,40.527,22.949
1620953425.181,23.926,42.969,50.293,39.551,30.273
1620953425.184,4.883,35.156,41.016,21.484,40.527
1620953425.188,-2.441,32.227,39.062,18.066,-52.734
1620953425.192,1.953,29.297,38.086,26.367,-60.059
1620953425.196,10.742,35.156,35.645,22.461,8.301
1620953425.200,8.789,41.016,36.621,8.301,10.742
1620953425.194,10.742,40.527,37.109,14.160,-7.812
1620953425.198,23.438,43.457,36.621,22.949,-7.324
1620953425.202,22.949,40.039,36.621,19.531,4.395
1620953425.206,21.973,37.109,40.527,17.090,15.137
1620953425.210,30.273,43.945,45.898,24.902,-9.277
1620953425.214,24.902,42.969,42.969,29.297,-0.977
1620953425.218,27.832,38.086,44.434,33.691,17.090
1620953425.221,33.203,39.551,48.828,28.809,38.086
1620953425.225,28.320,42.969,48.340,15.625,64.453
1620953425.229,17.578,37.109,47.363,16.602,44.434
1620953425.233,17.578,39.062,44.434,20.020,14.160
1620953425.237,22.461,45.410,40.527,14.648,-40.527
1620953425.250,13.672,37.109,34.180,4.395,-3.906
1620953425.254,16.602,36.621,30.273,4.883,26.855
1620953425.258,27.832,41.992,35.645,16.602,12.207
1620953425.262,24.414,40.527,39.551,19.043,46.387
1620953425.266,7.324,34.180,34.668,0.000,-32.715
1620953425.270,7.812,41.016,39.062,1.953,-35.645
1620953425.274,25.391,45.898,44.922,26.367,24.414
1620953425.277,30.762,49.316,39.551,32.715,3.418
1620953425.281,37.598,50.781,35.645,28.809,14.648
1620953425.285,26.367,45.898,31.250,18.066,26.367
1620953425.289,-7.812,39.551,29.297,16.602,35.156
1620953425.293,0.000,35.645,30.762,28.809,12.695
1620953425.289,2.930,36.621,29.297,31.250,35.645
1620953425.293,-14.160,34.180,28.809,28.809,87.891
1620953425.297,-4.395,33.203,28.809,31.738,-2.441
1620953425.301,-3.906,29.785,26.855,29.785,-45.410
1620953425.305,2.441,30.762,27.344,28.320,3.906
1620953425.309,11.230,32.227,27.344,22.949,-18.555
1620953425.313,13.672,32.715,28.809,20.508,-6.836
1620953425.316,17.578,37.109,26.367,22.949,37.109
1620953425.320,16.602,31.738,19.043,15.625,55.664
1620953425.324,6.836,24.902,18.555,10.742,-13.184
1620953425.328,14.648,33.203,28.809,19.531,-69.336
1620953425.332,27.344,38.574,31.738,22.461,-14.160
1620953425.345,22.461,34.668,28.320,15.625,39.551
1620953425.349,22.949,32.715,31.250,8.789,66.895
1620953425.353,12.207,33.691,36.133,5.371,84.473
1620953425.357,7.812,31.738,34.180,6.836,48.340
1620953425.361,14.648,30.762,25.879,16.602,16.602
1620953425.365,15.137,35.156,21.973,18.066,9.277
1620953425.369,16.113,32.227,24.414,13.184,12.207
1620953425.372,25.391,33.203,28.809,22.949,-13.672
1620953425.376,33.203,36.133,35.156,31.738,-7.324
1620953425.380,29.785,39.062,36.133,32.227,0.000
1620953425.384,27.832,41.504,31.250,24.902,37.598
1620953425.388,11.719,35.645,29.785,17.578,55.176
1620953425.382,18.066,36.621,34.668,23.438,75.684
1620953425.386,39.062,38.574,34.668,30.273,76.172
1620953425.390,28.809,35.156,32.227,22.461,21.973
1620953425.394,13.672,39.062,40.527,21.484,74.219
1620953425.398,6.836,37.109,42.969,23.438,12.695
1620953425.402,-6.348,28.320,37.109,15.625,0.977
1620953425.406,4.883,35.645,36.133,24.414,42.969
1620953425.409,16.113,36.621,36.133,21.484,2.930
1620953425.413,16.602,28.809,38.574,16.602,35.156
1620953425.417,8.789,26.367,38.574,20.996,15.625
1620953425.421,4.883,26.367,37.598,18.066,31.250
1620953425.425,15.625,28.809,46.875,14.648,37.109
1620953425.438,18.066,35.156,51.270,15.625,26.855
1620953425.442,15.137,28.320,46.875,18.066,66.895
1620953425.446,12.695,23.926,39.551,10.254,-3.418
1620953425.450,10.742,29.785,41.016,9.277,-53.711
1620953425.454,11.230,33.691,45.410,17.578,32.227
1620953425.458,19.531,34.180,47.852,29.785,90.332
1620953425.462,26.855,31.738,46.387,35.156,99.121
1620953425.465,17.578,29.785,41.504,14.648,13.184
1620953425.469,6.836,25.391,41.016,-1.465,-19.043
1620953425.473,1.953,31.250,41.992,8.789,-21.973
1620953425.477,-1.465,31.738,40.039,20.996,-8.301
1620953425.481,0.488,28.320,40.527,18.555,33.691
1620953425.475,2.441,27.344,39.551,14.160,9.766
1620953425.479,14.160,28.809,39.551,17.090,17.578
1620953425.483,26.855,30.273,37.598,19.043,53.711
1620953425.487,28.320,23.438,36.133,16.113,57.617
1620953425.491,42.480,28.320,40.527,11.719,22.461
1620953425.495,32.227,29.785,43.457,10.254,-58.594
1620953425.499,18.066,28.809,41.992,24.902,4.395
1620953425.502,34.668,36.621,42.480,33.691,70.801
1620953425.506,38.574,38.574,42.969,24.902,1.465
1620953425.510,35.645,33.203,39.062,18.066,28.809
1620953425.514,47.363,34.180,41.016,27.344,30.762
1620953425.518,26.855,36.133,46.875,35.156,6.348
1620953425.532,-18.555,33.203,48.340,23.438,69.824
1620953425.536,-19.531,32.227,39.551,6.348,61.035
1620953425.540,-4.395,38.086,41.016,14.160,-6.348
1620953425.544,21.484,41.992,48.340,38.574,-27.832
1620953425.548,33.203,40.039,46.875,34.668,-16.113
1620953425.552,25.879,40.527,52.734,28.320,-4.883
1620953425.556,21.973,42.969,61.035,40.039,-34.180
1620953425.559,21.484,36.133,54.199,38.574,-20.996
1620953425.563,22.461,30.273,48.340,30.762,29.785
1620953425.567,22.949,39.062,55.176,36.621,-16.113
1620953425.571,14.160,39.062,50.781,30.273,-9.766
1620953425.575,13.184,32.715,41.016,20.020,50.293
1620953425.570,14.160,35.645,41.016,21.484,21.484
1620953425.574,18.555,37.598,44.434,20.508,7.812
1620953425.578,20.508,34.180,41.992,6.348,31.250
1620953425.582,21.973,33.203,39.551,7.812,37.109
1620953425.586,20.996,32.715,41.016,20.508,81.055
1620953425.590,23.926,43.457,43.457,22.949,55.176
1620953425.594,29.297,41.504,46.875,17.090,18.066
1620953425.597,37.109,44.434,49.805,18.555,-5.859
1620953425.601,44.434,50.781,47.852,28.809,6.836
1620953425.605,29.785,36.621,35.156,17.578,57.617
1620953425.609,15.625,34.668,28.809,3.418,48.340
1620953425.613,17.090,33.691,40.039,13.184,44.434
1620953425.627,17.090,31.738,41.016,22.461,-21.484
1620953425.631,11.230,41.504,35.156,28.320,-5.859
1620953425.635,4.883,40.039,35.645,30.762,28.320
1620953425.639,5.859,29.785,28.320,22.461,39.551
1620953425.643,23.926,30.762,30.273,30.762,69.336
1620953425.647,38.086,29.785,33.203,38.574,5.859
1620953425.651,32.227,31.250,37.598,31.250,-37.109
1620953425.654,1.465,29.785,35.156,17.090,1.953
1620953425.658,2.441,27.344,33.691,26.367,21.973
1620953425.662,9.766,35.156,36.133,34.180,21.484
1620953425.666,0.488,28.320,38.574,24.414,16.602
1620953425.670,-8.789,19.043,34.180,10.742,-2.930
1620953425.663,4.395,23.438,33.691,15.137,-5.859
1620953425.667,23.926,24.902,37.598,22.949,39.062
1620953425.671,11.230,22.949,33.203,15.137,39.551
1620953425.675,12.695,31.250,40.527,14.648,-20.996
1620953425.679,27.344,33.203,41.016,13.672,59.082
1620953425.683,27.832,32.715,32.715,8.301,66.895
1620953425.687,22.949,43.457,33.203,13.184,-12.207
1620953425.690,18.066,44.434,36.621,11.230,20.020
1620953425.694,15.137,38.086,32.227,4.395,48.828
1620953425.698,13.184,35.645,25.391,10.742,-12.207
1620953425.702,16.113,33.203,27.344,20.508,-27.832
1620953425.706,27.344,37.598,31.250,28.809,10.742
1620953425.719,31.738,34.180,31.250,28.320,5.859
1620953425.723,47.363,27.344,34.668,36.133,12.207
1620953425.727,59.082,35.645,41.504,46.387,37.109
1620953425.731,48.340,43.945,42.969,38.086,18.066
1620953425.735,21.973,35.156,36.133,17.090,4.883
1620953425.739,11.230,38.574,42.969,27.832,20.996
1620953425.743,23.926,41.992,50.781,42.969,13.672
1620953425.746,23.438,28.809,44.922,30.762,42.969
1620953425.750,20.996,32.715,49.316,32.227,-3.418
1620953425.754,10.742,38.086,46.387,26.855,33.203
1620953425.758,11.230,36.133,45.898,30.273,35.156
1620953425.762,15.625,36.133,48.828,30.762,54.688
1620953425.757,10.742,37.109,44.434,17.578,102.051
1620953425.761,12.207,39.551,38.574,18.555,16.113
1620953425.765,16.113,30.762,34.668,20.996,-14.160
1620953425.769,22.949,28.320,36.621,22.461,37.109
1620953425.773,25.391,33.203,41.504,22.949,7.324
1620953425.777,19.043,25.879,38.086,15.625,-20.020
1620953425.781,23.926,31.738,35.645,23.926,17.090
1620953425.784,24.902,39.551,32.715,27.832,86.426
1620953425.788,29.297,37.598,35.645,30.273,93.262
1620953425.792,41.016,38.086,43.945,34.180,0.000
1620953425.796,42.480,38.574,41.016,36.133,25.879
1620953425.800,46.875,43.945,36.133,46.875,86.914
1620953425.813,49.805,40.527,33.691,45.898,19.531
1620953425.817,34.668,34.180,30.762,34.668,41.504
1620953425.821,28.320,39.551,31.738,32.227,30.762
1620953425.825,26.367,38.574,30.273,31.738,-2.441
1620953425.829,25.391,31.250,31.738,32.227,5.371
1620953425.833,34.180,33.203,42.969,39.551,10.742
1620953425.837,33.203,42.480,49.316,37.109,38.086
1620953425.840,21.973,42.480,45.410,36.133,16.602
1620953425.844,17.578,28.320,41.016,32.227,23.926
1620953425.848,22.461,24.414,39.551,24.902,49.316
1620953425.852,22.949,27.832,39.062,16.113,28.809
1620953425.856,19.531,29.785,37.109,10.254,29.785
1620953425.852,38.086,39.551,39.551,21.484,24.902
1620953425.856,47.852,38.086,41.016,21.484,-19.531
1620953425.860,25.879,33.691,34.180,11.230,-0.488
1620953425.864,22.949,37.109,39.062,20.020,46.875
1620953425.868,32.715,33.203,39.551,26.855,1.953
1620953425.872,19.043,29.297,39.551,23.926,-27.344
1620953425.876,2.441,27.832,45.410,21.484,-7.812
1620953425.879,5.859,26.367,40.039,25.879,-4.395
1620953425.883,9.766,20.996,30.762,34.668,-51.758
1620953425.887,13.184,18.555,33.203,29.785,-44.922
1620953425.891,13.672,27.344,36.133,27.344,5.859
1620953425.895,17.578,33.203,40.039,29.297,-1.953
1620953425.908,30.273,38.086,40.527,35.645,-39.551
1620953425.912,33.203,35.645,35.156,45.898,8.789
1620953425.916,26.367,29.297,31.250,33.203,28.320
1620953425.920,24.902,30.762,31.250,24.414,68.848
1620953425.924,30.762,37.598,31.250,35.156,63.477
1620953425.928,38.574,33.691,27.344,32.227,15.137
1620953425.932,46.387,31.250,25.391,19.043,53.711
1620953425.935,31.738,41.016,28.809,10.742,-10.742
1620953425.939,17.090,37.109,32.227,15.137,-21.973
1620953425.943,8.301,31.250,31.250,22.461,63.965
1620953425.947,0.977,34.180,29.785,23.926,57.129
1620953425.951,14.160,43.945,31.250,21.973,28.320
1620953425.944,19.043,42.480,30.762,20.020,88.379
1620953425.948,24.902,37.598,28.809,30.273,92.773
1620953425.952,39.551,43.945,33.203,47.852,29.297
1620953425.956,37.598,40.039,30.762,35.645,48.340
1620953425.960,27.344,28.809,28.320,23.438,24.414
1620953425.964,34.668,25.391,31.250,33.203,-21.973
1620953425.968,33.203,29.297,26.855,36.133,3.418
1620953425.971,18.555,24.902,27.344,29.297,-31.250
1620953425.975,18.555,24.902,35.156,21.484,-1.465
1620953425.979,13.672,27.344,29.297,25.879,44.922
1620953425.983,19.531,38.574,24.902,42.969,17.578
1620953425.987,24.414,37.109,27.832,45.898,-30.273
1620953426.000,19.531,26.855,29.785,35.156,26.855
1620953426.004,21.973,35.645,34.668,38.574,70.801
1620953426.008,25.879,43.457,39.551,42.969,24.902
1620953426.012,23.926,37.109,40.039,37.598,17.578
1620953426.016,14.648,22.461,34.668,26.855,40.039
1620953426.020,13.184,21.973,23.438,18.066,51.758
1620953426.024,20.020,22.949,15.625,13.672,41.504
1620953426.027,28.809,30.762,17.578,23.926,52.246
1620953426.031,18.555,40.527,19.531,20.508,66.895
1620953426.035,10.742,40.039,28.320,9.277,31.738
1620953426.039,12.695,35.156,39.062,5.859,-3.906
1620953426.043,13.184,31.738,36.621,-0.488,-0.977
1620953426.038,13.184,32.715,28.809,1.953,10.254
1620953426.042,15.625,36.133,22.461,-2.441,-43.945
1620953426.046,16.602,33.203,24.414,0.000,-35.156
1620953426.050,25.391,27.832,38.574,20.996,-2.441
1620953426.054,24.414,33.203,42.969,24.902,23.926
1620953426.058,15.137,37.109,33.691,21.484,73.242
1620953426.062,14.648,35.645,35.156,31.250,54.688
1620953426.065,23.438,38.574,39.551,45.410,49.316
1620953426.069,28.809,40.039,42.969,47.363,83.984
1620953426.073,24.902,28.320,42.969,31.738,24.414
1620953426.077,17.578,24.902,42.480,22.461,30.762
1620953426.081,17.578,30.762,37.109,28.809,42.969
1620953426.094,28.320,32.715,34.668,33.691,11.230
1620953426.098,20.020,35.645,33.203,21.484,60.059
1620953426.102,14.160,32.227,32.715,11.719,53.711
1620953426.106,28.320,31.250,38.574,19.531,51.270
1620953426.110,20.508,29.297,33.691,23.926,-3.906
1620953426.114,3.418,26.367,28.809,15.625,-52.734
1620953426.118,10.742,32.227,37.109,11.719,-20.508
1620953426.121,5.859,35.645,34.668,12.207,33.203
1620953426.125,11.230,35.156,31.250,23.926,46.387
1620953426.129,26.855,32.715,30.273,31.250,3.906
1620953426.133,30.273,33.691,28.320,20.020,0.977
1620953426.137,34.180,40.039,36.621,17.578,37.598
1620953426.151,36.133,41.016,30.273,30.273,16.602
1620953426.155,26.855,36.133,22.461,33.203,-12.207
1620953426.159,4.883,25.879,21.973,11.230,-58.594
1620953426.163,4.395,29.297,30.273,8.301,-7.324
1620953426.167,18.066,40.527,37.109,25.879,82.031
1620953426.171,17.578,32.227,32.227,22.949,34.180
1620953426.175,16.113,36.621,37.109,17.090,58.594
1620953426.178,20.996,41.992,45.410,18.555,23.926
1620953426.182,19.531,31.250,42.480,13.672,-13.672
1620953426.186,29.297,31.738,39.551,20.020,24.902
1620953426.190,53.711,39.551,41.504,31.738,20.020
1620953426.194,47.852,40.039,41.016,20.508,-12.695
1620953426.207,34.180,37.109,41.992,18.555,-20.996
1620953426.211,29.785,38.086,40.527,26.855,-12.695
1620953426.215,7.812,32.715,35.645,12.207,62.988
1620953426.219,7.324,29.785,42.969,9.766,33.691
1620953426.223,19.043,36.133,50.293,21.973,-23.438
1620953426.227,18.555,42.969,52.246,26.855,39.062
1620953426.231,10.742,36.621,41.992,20.020,69.336
1620953426.234,9.766,34.180,28.809,16.113,60.059
1620953426.238,9.277,34.668,36.621,29.297,57.617
1620953426.242,1.953,28.320,40.527,23.926,58.594
1620953426.246,5.371,30.762,37.109,24.902,16.602
1620953426.250,17.578,35.645,41.016,27.344,0.488
1620953426.227,13.184,41.504,52.734,17.578,72.754
1620953426.231,17.090,43.457,53.711,21.484,17.578
1620953426.235,21.973,38.086,43.945,28.320,-60.547
1620953426.239,10.254,41.016,42.480,26.855,13.672
1620953426.243,-1.953,37.598,37.598,22.461,72.266
1620953426.247,7.324,33.691,31.738,24.902,42.480
1620953426.251,24.902,40.039,30.273,22.949,8.789
1620953426.254,19.531,40.527,30.762,15.137,33.203
1620953426.258,16.113,38.574,27.832,17.578,16.113
1620953426.262,11.230,40.039,27.832,9.766,19.531
1620953426.266,10.742,42.480,31.738,16.113,80.566
1620953426.270,24.414,39.551,27.832,24.414,41.992
1620953426.282,21.484,31.738,26.367,18.066,40.039
1620953426.286,13.672,27.832,31.738,19.043,45.898
1620953426.290,11.719,20.020,30.762,19.531,-20.020
1620953426.294,22.461,-1.953,30.273,25.879,-28.809
1620953426.298,28.809,-33.203,32.227,28.320,-12.695
1620953426.302,30.273,-56.152,37.109,26.367,7.324
1620953426.306,35.156,-64.941,42.969,28.809,21.973
1620953426.309,37.598,-83.984,33.203,30.273,36.621
1620953426.313,36.621,-88.867,29.297,36.621,23.926
1620953426.317,14.648,-88.867,28.809,30.273,-26.367
1620953426.321,4.395,-86.914,27.344,23.438,27.344
1620953426.325,22.461,-76.172,31.738,28.320,15.625
1620953426.319,20.508,-72.754,26.855,29.297,-31.738
1620953426.323,20.996,-74.219,28.809,22.949,-9.766
1620953426.327,28.320,-65.430,37.109,28.320,-8.789
1620953426.331,37.109,-59.082,35.645,37.109,17.090
1620953426.335,48.828,-58.105,34.180,37.598,72.266
1620953426.339,48.340,-51.758,35.156,32.715,84.961
1620953426.343,27.344,-49.316,34.180,24.414,35.156
1620953426.346,20.508,-48.340,38.086,30.273,66.895
1620953426.350,26.855,-44.922,35.156,37.598,43.945
1620953426.354,20.508,-43.945,26.855,31.250,8.301
1620953426.358,11.719,-42.969,26.367,20.996,-24.902
1620953426.362,6.348,-41.016,28.809,21.484,-44.434
1620953426.375,14.648,-34.668,29.297,26.367,-12.207
1620953426.379,22.461,-28.320,25.879,22.949,6.348
1620953426.383,25.391,-25.391,29.297,19.043,-25.391
1620953426.387,24.902,-19.043,30.273,11.230,-27.832
1620953426.391,16.602,-20.020,21.484,9.766,-38.574
1620953426.395,24.902,-22.949,30.273,22.461,-71.777
1620953426.399,31.738,-21.973,34.668,19.531,-2.441
1620953426.402,17.578,-23.438,24.902,0.977,25.391
1620953426.406,24.902,-20.508,24.414,19.043,20.508
1620953426.410,36.133,-12.207,28.320,40.039,12.207
1620953426.414,40.039,-6.836,32.715,29.785,-3.418
1620953426.418,33.691,-12.695,28.809,21.973,55.664
1620953426.414,17.578,-14.648,26.367,29.297,48.828
1620953426.418,20.020,-9.766,26.855,38.086,1.953
1620953426.422,23.926,-8.789,24.902,34.180,-8.789
1620953426.426,22.461,-8.789,27.832,27.344,-3.418
1620953426.430,25.391,-1.465,37.598,28.320,41.016
1620953426.434,30.762,0.977,31.738,33.203,38.086
1620953426.438,29.785,-3.906,24.902,41.504,-6.348
1620953426.441,20.996,-2.441,31.738,40.527,-0.488
1620953426.445,18.555,2.441,30.273,26.367,35.156
1620953426.449,18.555,1.465,26.367,18.066,5.859
1620953426.453,28.320,4.395,26.367,14.648,47.363
1620953426.457,35.156,13.672,29.297,13.184,77.148
1620953426.470,32.227,12.207,27.832,10.254,-0.488
1620953426.474,33.203,12.207,21.973,19.043,12.207
1620953426.478,30.762,18.066,25.391,34.180,13.672
1620953426.482,17.090,15.625,27.344,22.949,-16.113
1620953426.486,10.742,16.113,31.738,23.438,25.879
1620953426.490,21.973,17.578,32.227,27.832,17.578
1620953426.494,26.855,17.578,34.180,33.203,40.527
1620953426.497,11.230,13.672,33.691,32.227,27.832
1620953426.501,6.348,11.719,29.785,22.461,-36.133
1620953426.505,8.789,13.672,31.738,19.043,-21.973
1620953426.509,14.648,15.625,28.320,26.367,35.156
1620953426.513,22.461,20.508,24.414,36.133,72.754
1620953426.507,12.207,16.602,21.973,25.879,72.754
1620953426.511,19.531,17.578,21.973,32.227,12.207
1620953426.515,30.273,24.414,24.902,44.922,3.418
1620953426.519,29.785,23.926,31.738,44.434,38.086
1620953426.523,26.367,20.508,24.902,33.691,-2.930
1620953426.527,18.555,17.090,14.160,23.926,11.719
1620953426.531,16.602,12.207,11.719,28.320,37.598
1620953426.534,22.949,13.184,12.695,34.668,14.648
1620953426.538,25.391,17.578,20.996,37.109,-13.672
1620953426.542,20.508,18.555,22.461,27.344,-24.902
1620953426.546,21.973,28.320,21.484,22.949,-19.531
1620953426.550,21.484,26.367,19.043,26.367,18.555
1620953426.563,24.902,17.578,19.043,18.555,66.406
1620953426.567,21.973,21.484,22.461,3.906,18.066
1620953426.571,13.672,20.020,15.137,-1.953,12.207
1620953426.575,14.160,20.020,14.160,16.113,45.898
1620953426.579,19.043,26.367,25.391,24.414,109.375
1620953426.583,11.230,29.785,27.832,16.602,71.289
1620953426.587,5.859,27.832,22.461,13.184,-7.812
1620953426.590,20.020,26.367,24.414,20.508,-33.203
1620953426.594,20.020,30.273,24.902,22.949,-10.742
1620953426.598,18.066,33.691,23.926,15.137,52.246
1620953426.602,19.531,36.133,33.203,25.879,38.574
1620953426.606,13.184,37.598,36.133,32.227,36.133
1620953426.619,20.996,40.039,32.715,39.551,69.336
1620953426.623,21.484,36.133,29.297,28.320,3.418
1620953426.627,25.391,32.227,41.016,19.043,-46.387
1620953426.631,43.457,32.227,46.875,39.551,-27.344
1620953426.635,45.410,28.320,38.574,42.969,8.301
1620953426.639,29.785,36.133,43.457,41.016,-10.254
1620953426.643,16.113,37.598,39.551,27.344,-4.395
1620953426.646,13.184,28.320,30.762,16.113,-2.441
1620953426.650,20.996,26.855,32.715,28.809,-65.430
1620953426.654,27.832,27.832,33.203,29.785,-40.039
1620953426.658,15.625,29.297,30.762,20.020,-9.766
1620953426.662,8.789,30.762,29.785,12.207,-4.395
1620953426.657,25.391,32.715,36.133,23.438,44.434
1620953426.661,21.484,36.133,40.527,32.227,73.730
1620953426.665,12.207,37.598,36.621,31.738,40.039
1620953426.669,16.113,33.691,37.109,25.879,-20.020
1620953426.673,20.508,32.227,36.133,21.484,10.254
1620953426.677,28.320,33.203,32.227,33.203,-5.859
1620953426.681,28.320,30.273,32.715,20.020,-37.598
1620953426.684,18.555,29.297,33.203,-2.441,-65.430
1620953426.688,21.484,30.273,37.598,6.836,-32.715
1620953426.692,30.762,33.203,42.969,22.949,82.031
1620953426.696,30.273,40.527,42.480,24.902,92.773
1620953426.700,25.391,38.574,41.504,18.555,51.270
1620953426.695,16.113,34.180,43.945,15.625,2.441
1620953426.699,18.555,36.133,45.410,22.949,21.973
1620953426.703,23.926,37.109,36.621,26.855,20.508
1620953426.707,26.855,41.992,37.598,30.273,-26.855
1620953426.711,24.902,41.504,37.598,25.879,-9.277
1620953426.715,12.207,37.598,28.809,19.531,71.777
1620953426.719,13.184,35.156,28.320,27.344,56.152
1620953426.722,30.273,37.598,38.086,33.691,49.805
1620953426.726,22.949,37.109,44.922,27.832,60.059
1620953426.730,5.371,27.344,38.086,27.832,10.254
1620953426.734,11.719,28.809,36.621,36.621,17.090
1620953426.738,15.137,26.855,29.297,25.391,16.113
1620953426.752,18.555,31.250,32.715,20.020,15.137
1620953426.756,27.344,41.016,38.086,32.227,22.949
1620953426.760,39.062,38.086,33.203,38.574,30.273
1620953426.764,32.227,40.039,35.156,35.156,25.879
1620953426.768,17.578,37.598,32.715,26.367,12.695
1620953426.772,20.508,35.645,33.691,22.461,36.133
1620953426.776,22.949,34.180,32.227,24.414,28.320
1620953426.779,23.926,24.902,29.785,30.273,35.645
1620953426.783,32.715,20.508,33.691,34.180,34.668
1620953426.787,47.363,32.715,40.039,35.645,34.668
1620953426.791,43.457,43.457,39.062,34.180,59.570
1620953426.795,22.461,38.574,31.738,21.973,23.438
1620953426.788,25.879,34.180,28.809,16.113,10.254
1620953426.792,32.715,39.062,31.738,21.973,54.199
1620953426.796,32.715,42.480,35.156,26.367,12.207
1620953426.800,40.527,36.621,34.668,28.809,8.301
1620953426.804,44.434,37.109,27.832,32.715,15.625
1620953426.808,41.992,45.410,28.809,38.574,50.781
1620953426.812,28.320,41.992,32.715,26.367,48.340
1620953426.815,19.531,32.715,22.949,29.785,10.742
1620953426.819,20.508,28.809,16.113,36.621,48.828
1620953426.823,20.508,34.668,22.949,38.574,9.766
1620953426.827,20.020,33.203,32.227,41.992,-11.719
1620953426.831,26.367,32.227,33.691,40.527,7.812
1620953426.844,20.996,35.156,28.809,45.898,-31.738
1620953426.848,8.789,28.809,21.973,38.086,5.859
1620953426.852,11.719,33.691,18.066,18.066,49.805
1620953426.856,16.602,41.504,18.555,18.066,36.621
1620953426.860,33.203,39.062,24.414,41.016,68.359
1620953426.864,39.062,33.691,32.227,34.180,82.520
1620953426.868,27.832,36.133,30.273,17.578,8.301
1620953426.871,22.949,38.086,24.414,22.461,17.090
1620953426.875,24.414,33.691,31.250,26.855,41.504
1620953426.879,19.043,39.551,30.273,22.461,19.043
1620953426.883,28.809,44.434,27.344,26.855,58.594
1620953426.887,27.344,43.457,31.738,20.996,85.938
1620953426.882,22.461,45.898,36.133,29.297,81.543
1620953426.886,24.414,40.527,33.203,38.086,17.578
1620953426.890,21.484,39.062,29.785,23.926,-12.695
1620953426.894,24.414,37.109,30.762,12.695,57.617
1620953426.898,23.438,33.691,24.902,7.324,33.203
1620953426.902,36.133,36.133,27.832,11.719,-2.441
1620953426.906,51.758,42.480,38.086,27.344,-14.648
1620953426.909,32.227,38.086,34.668,22.949,-4.395
1620953426.913,20.996,35.156,34.180,24.902,45.410
1620953426.917,33.203,43.945,36.133,39.062,18.555
1620953426.921,31.738,44.434,32.715,25.391,3.418
1620953426.925,21.973,40.527,32.715,17.578,16.602
1620953426.938,12.695,39.551,36.621,22.949,-5.859
1620953426.942,19.043,41.504,40.039,33.691,-2.441
1620953426.946,26.367,44.922,45.898,47.852,45.410
1620953426.950,9.766,38.574,40.527,37.109,23.438
1620953426.954,5.859,32.227,37.109,22.461,-33.203
1620953426.958,3.906,31.738,42.969,27.344,-0.488
1620953426.962,18.066,35.645,46.875,35.156,45.898
1620953426.965,26.367,32.227,45.898,20.020,26.855
1620953426.969,15.625,38.086,42.969,15.625,-39.062
1620953426.973,6.836,38.086,36.133,25.879,19.043
1620953426.977,11.230,34.180,32.227,32.715,88.867
1620953426.981,17.578,43.457,34.180,28.809,51.758
1620953426.977,6.836,39.062,36.621,15.625,35.645
1620953426.981,21.484,42.480,43.457,19.531,26.855
1620953426.985,21.973,40.527,33.203,16.602,67.383
1620953426.989,11.719,35.156,31.250,6.836,57.617
1620953426.993,28.809,41.504,38.086,11.230,38.086
1620953426.997,29.297,38.574,28.809,8.301,80.566
1620953427.001,30.762,37.598,32.227,14.648,20.996
1620953427.004,41.504,42.969,33.203,25.391,-38.574
1620953427.008,33.203,41.992,35.645,21.973,39.062
1620953427.012,24.414,34.668,43.457,20.996,56.152
1620953427.016,21.973,32.715,39.062,32.227,-7.324
1620953427.020,23.926,33.203,34.668,39.551,2.441
1620953427.033,18.066,36.133,40.039,35.645,43.457
1620953427.037,7.324,33.691,40.039,29.297,34.180
1620953427.041,15.625,27.832,37.109,38.574,20.020
1620953427.045,33.203,25.879,36.133,55.176,29.785
1620953427.049,22.461,34.668,27.832,38.574,4.883
1620953427.053,-1.953,35.645,20.996,10.742,-23.926
1620953427.057,0.000,44.434,18.066,11.719,-4.395
1620953427.060,19.043,52.246,20.020,26.855,28.320
1620953427.064,11.230,41.016,29.297,24.902,9.277
1620953427.068,-0.977,46.387,35.645,10.254,-12.207
1620953427.072,5.859,49.316,47.852,15.137,-15.137
1620953427.076,11.230,45.410,45.898,24.414,31.250
1620953427.069,1.465,42.480,31.250,14.160,104.004
1620953427.073,2.930,49.316,35.645,8.789,63.965
1620953427.077,15.137,62.500,27.832,1.465,75.684
1620953427.081,22.461,55.176,17.090,4.395,71.777
1620953427.085,31.738,48.828,20.508,11.719,24.414
1620953427.089,23.926,53.711,32.715,10.742,10.742
1620953427.093,7.324,49.805,34.180,0.977,31.250
1620953427.096,11.719,47.852,16.113,-11.719,58.105
1620953427.100,23.926,47.852,12.207,-7.324,15.625
1620953427.104,36.133,47.363,21.973,8.301,30.273
1620953427.108,21.484,41.016,23.438,2.930,39.062
1620953427.112,2.441,41.504,20.996,-0.977,-3.418
1620953427.126,15.625,45.410,19.043,23.926,-38.086
1620953427.130,22.949,39.062,20.020,29.297,-37.598
1620953427.134,22.949,41.504,27.344,28.809,-1.465
1620953427.138,16.602,41.992,25.391,13.672,-8.789
1620953427.142,25.879,35.156,26.367,17.090,-12.207
1620953427.146,25.879,31.250,20.996,25.391,20.508
1620953427.150,-6.836,27.344,12.695,15.625,19.043
1620953427.153,-8.789,29.297,27.832,25.391,14.648
1620953427.157,4.883,24.414,27.832,32.715,59.082
1620953427.161,12.207,20.996,27.344,37.109,8.789
1620953427.165,8.789,27.344,30.273,21.484,-48.828
1620953427.169,3.906,28.320,26.855,8.301,-2.441
1620953427.163,12.207,39.551,31.250,28.809,2.930
1620953427.167,29.297,40.039,30.762,36.133,-38.086
1620953427.171,25.879,27.344,21.484,31.250,-25.879
1620953427.175,8.789,23.438,20.996,29.297,31.250
1620953427.179,14.648,24.414,24.414,27.832,31.250
1620953427.183,20.508,24.414,22.949,26.367,7.812
1620953427.187,19.043,24.414,26.855,24.414,27.832
1620953427.190,23.926,29.297,33.203,28.320,-15.625
1620953427.194,25.391,31.250,33.203,16.602,-15.625
1620953427.198,25.879,31.738,26.367,9.766,50.781
1620953427.202,47.852,39.551,34.180,22.461,33.203
1620953427.206,56.152,32.715,38.574,17.090,43.945
1620953427.219,48.340,24.414,21.484,4.395,32.227
1620953427.223,38.086,30.273,20.996,4.395,-8.301
1620953427.227,34.668,36.133,30.273,13.184,12.695
1620953427.231,37.109,32.715,19.043,4.883,8.301
1620953427.235,35.156,32.227,21.484,-1.953,15.625
1620953427.239,31.250,40.039,37.109,10.254,22.461
1620953427.243,28.809,38.086,38.574,21.484,14.160
1620953427.246,24.414,30.762,32.227,22.461,16.602
1620953427.250,15.137,27.344,34.180,24.902,-19.531
1620953427.254,8.301,29.785,47.852,35.645,-1.465
1620953427.258,1.465,28.809,46.875,41.504,38.086
1620953427.262,4.395,23.438,35.645,40.527,57.129
1620953427.258,-3.418,19.531,31.738,24.902,33.691
1620953427.262,-11.230,24.414,30.273,19.531,-26.367
1620953427.266,-3.418,35.645,38.574,39.551,-43.945
1620953427.270,9.766,34.668,42.969,39.062,5.371
1620953427.274,14.160,33.691,35.156,16.602,29.297
1620953427.278,8.789,36.133,33.203,9.766,67.383
1620953427.282,4.883,29.785,28.809,8.789,50.293
1620953427.285,9.277,28.809,31.738,20.020,9.277
1620953427.289,17.090,32.227,43.945,35.156,18.066
1620953427.293,17.090,34.668,38.086,29.785,12.695
1620953427.297,29.785,47.363,35.645,28.809,54.688
1620953427.301,28.809,40.039,38.086,28.809,71.777
1620953427.314,23.926,33.203,28.809,22.949,67.383
1620953427.318,25.391,33.203,24.414,12.207,87.402
1620953427.322,35.156,29.297,27.832,15.625,44.922
1620953427.326,38.086,32.715,26.367,19.531,21.973
1620953427.330,38.574,41.016,26.367,24.414,71.289
1620953427.334,35.645,41.992,25.391,28.320,21.973
1620953427.338,27.344,33.203,20.996,21.484,14.648
1620953427.341,37.109,36.621,20.996,23.438,24.414
1620953427.345,40.039,42.969,23.926,29.785,-5.859
1620953427.349,37.109,45.410,30.762,33.203,8.301
1620953427.353,32.227,41.016,27.832,17.578,-39.551
1620953427.357,17.578,37.109,28.320,15.625,-22.949
1620953427.350,14.648,36.621,35.645,25.391,32.715
1620953427.354,-4.883,26.855,29.297,14.160,20.996
1620953427.358,-13.184,24.414,31.250,15.625,4.883
1620953427.362,-0.977,42.480,33.691,24.414,-5.859
1620953427.366,5.371,45.898,29.785,29.785,28.809
1620953427.370,15.625,32.715,35.156,35.645,37.598
1620953427.374,5.371,34.180,29.297,22.949,30.273
1620953427.377,10.254,34.668,26.855,16.113,27.344
1620953427.381,30.762,38.086,38.086,20.020,21.973
1620953427.385,38.574,44.434,45.410,22.949,10.254
1620953427.389,20.508,35.156,36.621,19.531,7.324
1620953427.393,-5.859,31.250,29.785,14.648,-7.812
1620953427.407,2.930,34.668,29.785,21.973,-10.742
1620953427.411,16.602,35.156,31.738,22.949,5.859
1620953427.415,14.648,37.109,34.668,19.043,-12.207
1620953427.419,24.414,36.133,43.945,28.320,-16.113
1620953427.423,27.832,28.320,41.992,26.855,-8.301
1620953427.427,23.438,26.855,32.715,20.020,33.203
1620953427.431,32.715,34.668,27.344,9.766,14.648
1620953427.434,32.227,42.969,14.648,-3.418,-82.031
1620953427.438,20.508,41.504,15.137,-0.488,-28.320
1620953427.442,23.438,49.805,29.785,10.254,32.715
1620953427.446,28.809,39.062,31.738,23.926,36.621
1620953427.450,22.461,15.625,32.227,23.438,75.195
1620953427.444,20.020,21.973,34.668,19.531,26.855
1620953427.448,19.043,26.367,37.598,29.297,-5.371
1620953427.452,13.184,34.180,34.668,22.949,28.320
1620953427.456,2.930,48.340,19.043,1.953,17.090
1620953427.460,-2.930,46.387,22.461,-4.883,0.000
1620953427.464,-11.719,35.645,31.738,1.465,34.668
1620953427.468,-14.648,29.785,29.785,1.953,61.523
1620953427.471,-4.395,35.156,32.715,4.395,-15.137
1620953427.475,1.953,44.922,31.738,3.418,1.953
1620953427.479,11.230,33.203,28.809,-5.859,-19.043
1620953427.483,34.180,25.879,30.273,5.371,22.949
1620953427.487,11.719,27.832,25.879,9.766,64.453
1620953427.501,-36.621,22.461,25.879,0.000,26.855
1620953427.505,-33.203,27.832,22.461,-4.883,59.570
1620953427.509,-5.371,37.109,20.020,0.977,49.316
1620953427.513,0.977,33.203,21.484,5.859,47.852
1620953427.517,11.230,31.250,25.391,13.672,8.789
1620953427.521,-2.441,27.344,23.438,0.977,28.320
1620953427.525,-13.672,32.227,20.508,0.000,48.828
1620953427.528,10.742,41.016,34.180,28.809,23.926
1620953427.532,0.488,34.180,39.062,19.043,18.555
1620953427.536,-9.766,30.762,31.738,1.953,6.348
1620953427.540,-5.859,35.645,24.414,5.371,39.062
1620953427.544,-3.906,35.645,26.855,8.301,32.715
1620953427.557,-1.465,26.855,27.832,4.883,56.152
1620953427.561,-3.906,31.250,19.531,-7.324,1.953
1620953427.565,-2.930,42.969,25.879,-8.301,-36.621
1620953427.569,6.836,44.922,28.320,-5.371,38.086
1620953427.573,-0.488,44.434,20.508,-15.137,81.055
1620953427.577,3.906,43.945,20.996,-13.184,94.238
1620953427.581,14.160,39.551,24.414,-6.836,116.699
1620953427.584,14.648,37.598,26.367,8.301,36.133
1620953427.588,5.859,42.969,26.855,17.578,-14.648
1620953427.592,-11.719,41.504,34.668,11.230,19.043
1620953427.596,-8.789,35.645,38.574,12.695,29.297
1620953427.600,6.836,32.715,21.973,9.277,20.996
1620953427.595,27.832,35.645,21.484,11.719,16.602
1620953427.599,26.855,44.434,36.133,23.926,8.789
1620953427.603,3.418,43.945,29.785,18.555,9.766
1620953427.607,0.488,41.992,23.926,13.184,69.336
1620953427.611,14.160,44.434,27.832,19.043,56.152
1620953427.615,12.695,46.875,29.785,20.020,24.902
1620953427.619,4.395,46.875,28.809,13.184,65.918
1620953427.622,16.113,42.480,29.785,21.484,43.945
1620953427.626,26.855,37.109,29.785,35.645,-58.105
1620953427.630,17.578,40.527,23.926,26.855,-27.344
1620953427.634,16.602,48.340,20.996,25.879,29.785
1620953427.638,24.902,51.758,27.832,26.855,-0.488
1620953427.632,21.484,51.758,25.391,22.949,1.465
1620953427.636,24.414,52.246,24.902,29.297,24.414
1620953427.640,26.367,56.152,35.645,18.555,79.590
1620953427.644,25.391,55.664,35.645,13.672,60.547
1620953427.648,35.156,48.340,25.391,24.902,-40.039
1620953427.652,50.293,49.316,29.785,34.180,-8.301
1620953427.656,42.969,45.898,29.297,31.738,-18.066
1620953427.659,21.484,42.969,9.277,15.137,-44.434
1620953427.663,45.410,53.711,15.625,26.855,29.785
1620953427.667,49.316,55.176,25.879,40.039,42.480
1620953427.671,25.879,48.828,19.043,26.855,5.371
1620953427.675,28.809,48.340,27.832,31.738,-2.930
1620953427.688,22.461,48.340,26.367,30.762,17.090
1620953427.692,24.414,49.805,21.484,25.391,19.043
1620953427.696,36.133,46.875,27.832,25.879,63.965
1620953427.700,40.527,52.734,28.320,28.320,59.082
1620953427.704,20.508,42.969,29.297,30.273,-25.879
1620953427.708,4.395,31.738,32.715,26.855,-49.805
1620953427.712,11.230,38.574,28.320,24.902,17.090
1620953427.715,24.902,34.668,34.180,31.250,12.695
1620953427.719,24.902,32.227,39.551,31.250,-26.855
1620953427.723,13.672,37.598,36.133,32.227,-30.762
1620953427.727,23.926,35.645,34.668,41.016,11.230
1620953427.731,24.414,30.762,28.809,37.109,28.320
1620953427.725,15.625,30.273,26.367,24.414,34.180
1620953427.729,15.137,33.691,23.438,19.043,42.969
1620953427.733,24.414,38.574,27.832,29.297,13.672
1620953427.737,34.180,38.574,35.156,32.227,21.484
1620953427.741,40.527,38.086,35.645,21.973,-0.488
1620953427.745,37.598,38.574,31.738,11.719,-32.227
1620953427.749,30.273,40.039,36.133,15.625,-9.766
1620953427.752,23.438,38.574,30.273,13.184,2.930
1620953427.756,18.555,29.785,29.297,10.742,13.672
1620953427.760,23.438,27.344,41.504,15.625,6.348
1620953427.764,9.277,27.832,37.598,13.672,-12.207
1620953427.768,-8.301,29.785,29.297,1.953,12.207
1620953427.782,9.766,42.480,26.855,7.812,-5.859
1620953427.786,27.344,40.527,33.203,25.391,26.367
1620953427.790,35.645,38.086,46.387,30.273,-3.906
1620953427.794,38.086,40.039,54.199,46.875,-27.344
1620953427.798,22.461,29.297,34.180,37.598,73.242
1620953427.802,26.367,31.738,30.273,27.344,42.480
1620953427.806,30.762,33.203,37.598,34.668,42.969
1620953427.809,34.668,30.762,34.668,41.016,97.656
1620953427.813,34.668,35.645,36.621,46.387,39.551
1620953427.817,8.789,43.945,38.086,41.992,-20.996
1620953427.821,7.324,41.016,40.039,44.922,4.395
1620953427.825,27.344,41.016,44.434,42.480,53.223
1620953427.838,30.273,43.945,45.898,37.598,27.344
1620953427.842,26.367,35.156,37.598,33.691,-19.043
1620953427.846,23.926,28.320,33.203,16.602,-35.156
1620953427.850,26.855,34.180,34.180,18.555,-8.301
1620953427.854,25.391,40.527,36.133,16.602,-0.488
1620953427.858,23.926,38.574,39.062,6.836,-7.324
1620953427.862,30.273,41.504,37.109,7.324,24.902
1620953427.865,31.738,47.852,32.715,4.883,43.945
1620953427.869,31.250,50.293,37.109,4.883,43.457
1620953427.873,25.879,41.504,41.016,4.395,-4.395
1620953427.877,21.484,42.480,41.016,3.418,-2.930
1620953427.881,11.230,45.410,39.551,7.324,-22.461
1620953427.877,15.625,47.852,47.363,22.949,-78.613
1620953427.881,13.672,45.898,51.758,29.297,-28.809
1620953427.885,3.906,37.598,41.992,24.902,-1.465
1620953427.889,4.883,34.180,38.574,22.949,5.371
1620953427.893,7.812,36.621,35.645,34.180,-8.301
1620953427.897,14.160,38.574,30.762,54.199,37.109
1620953427.901,20.020,37.109,31.250,42.969,56.152
1620953427.904,17.090,41.504,31.738,32.227,2.441
1620953427.908,25.391,42.480,28.320,40.039,-30.273
1620953427.912,47.852,48.340,38.086,53.223,-34.180
1620953427.916,41.504,50.781,43.945,50.293,14.648
1620953427.920,18.555,42.969,28.320,32.715,45.410
1620953427.913,26.367,42.969,25.879,33.203,13.184
1620953427.917,29.785,38.574,28.809,32.715,47.363
1620953427.921,20.020,38.574,30.273,23.438,84.473
1620953427.925,21.484,42.480,31.250,10.254,36.621
1620953427.929,18.066,35.156,29.785,3.418,40.527
1620953427.933,19.043,39.551,33.203,12.695,35.645
1620953427.937,22.949,48.340,40.039,18.555,-29.785
1620953427.940,23.926,47.363,38.574,17.090,-57.617
1620953427.944,22.461,40.527,33.203,8.789,8.789
1620953427.948,20.020,38.086,30.273,10.742,86.914
1620953427.952,25.391,45.410,30.273,20.508,61.523
1620953427.956,33.203,45.898,31.250,17.090,50.293
1620953427.969,34.668,46.875,29.785,9.277,44.434
1620953427.973,34.180,54.199,32.227,9.766,81.543
1620953427.977,32.715,51.758,29.297,19.531,94.727
1620953427.981,28.809,49.805,34.180,24.414,8.789
1620953427.985,24.414,46.875,39.062,14.648,-21.973
1620953427.989,27.832,47.363,42.969,22.461,-13.184
1620953427.993,34.180,45.898,43.457,31.250,-0.977
1620953427.996,44.922,48.828,42.969,41.016,4.395
1620953428.000,33.691,49.316,42.969,42.969,22.461
1620953428.004,17.090,41.504,35.645,34.668,39.551
1620953428.008,4.883,32.715,30.273,37.109,-4.883
1620953428.012,19.531,37.109,39.062,48.340,40.527
1620953428.007,24.414,43.945,42.480,48.828,32.227
1620953428.011,-7.812,35.645,25.879,31.250,2.441
1620953428.015,-8.789,34.180,34.668,42.969,26.367
1620953428.019,14.648,38.086,41.504,51.270,-3.418
1620953428.023,16.113,38.574,32.715,40.039,8.301
1620953428.027,3.906,43.457,33.691,29.785,20.996
1620953428.031,3.418,46.387,32.715,20.508,38.574
1620953428.034,18.066,35.156,34.180,27.832,58.105
1620953428.038,25.391,34.180,37.598,33.203,87.891
1620953428.042,25.391,46.875,35.645,20.508,74.219
1620953428.046,34.180,51.758,44.922,25.391,63.965
1620953428.050,50.781,43.945,41.016,28.320,-4.883
1620953428.063,63.965,40.527,41.016,22.949,-7.324
1620953428.067,41.992,40.039,41.016,17.578,2.930
1620953428.071,23.926,41.016,35.645,9.766,-47.363
1620953428.075,29.297,46.387,38.086,21.973,18.555
1620953428.079,42.969,44.922,39.062,35.645,26.367
1620953428.083,50.293,39.062,44.434,39.551,7.812
1620953428.087,20.508,38.086,41.992,10.742,7.812
1620953428.090,9.766,47.852,40.039,-4.395,1.953
1620953428.094,26.855,65.918,38.086,11.230,2.441
1620953428.098,19.531,49.316,27.832,10.254,28.809
1620953428.102,12.695,36.621,16.113,9.766,48.340
1620953428.106,2.930,38.574,10.254,2.441,53.711
1620953428.102,-1.953,34.180,18.066,8.789,66.895
1620953428.106,4.395,33.203,22.461,20.996,21.484
1620953428.110,16.602,31.250,24.902,25.879,-26.855
1620953428.114,13.672,28.809,25.391,20.996,34.668
1620953428.118,21.484,35.645,29.297,20.508,46.387
1620953428.122,36.133,34.180,28.809,28.809,-12.207
1620953428.126,20.508,27.344,18.555,25.879,-14.648
1620953428.129,-10.254,33.691,23.438,22.461,52.734
1620953428.133,-8.789,33.203,28.809,30.762,56.152
1620953428.137,-0.977,23.926,24.902,40.039,26.855
1620953428.141,3.418,25.879,29.785,27.344,9.766
1620953428.145,11.719,28.320,35.645,9.766,15.137
1620953428.158,17.578,30.762,38.086,15.625,-5.371
1620953428.162,24.414,30.762,29.297,12.207,-71.777
1620953428.166,15.625,30.762,24.902,-10.254,-67.871
1620953428.170,16.113,43.945,28.320,-14.160,-26.367
1620953428.174,16.602,39.062,25.879,-3.418,27.832
1620953428.178,12.207,22.949,27.832,4.395,44.922
1620953428.182,15.625,21.973,32.227,7.812,73.242
1620953428.185,10.742,19.043,28.809,-6.348,42.480
1620953428.189,5.371,16.602,31.738,-8.789,0.977
1620953428.193,14.648,23.438,29.297,11.230,22.461
1620953428.197,19.531,29.297,27.832,16.602,-11.719
1620953428.201,10.254,28.320,32.227,3.418,-1.465
1620953428.202,26.855,33.691,26.367,28.320,9.766
1620953428.206,31.738,27.832,27.344,28.809,-16.113
1620953428.210,32.227,26.855,32.715,29.785,31.250
1620953428.214,25.391,28.320,31.250,29.297,36.133
1620953428.218,29.785,33.203,35.645,36.621,-24.414
1620953428.221,44.922,39.062,40.039,44.434,0.977
1620953428.225,45.898,41.016,33.203,33.691,47.363
1620953428.229,55.664,37.109,32.715,28.809,12.207
1620953428.233,55.664,36.133,28.809,30.762,-15.625
1620953428.237,19.531,39.062,27.832,37.109,52.246
1620953428.250,-10.742,38.086,33.691,40.527,85.449
1620953428.254,-19.531,37.598,35.156,30.273,56.641
1620953428.258,-7.812,36.133,32.715,24.902,41.504
1620953428.262,2.930,31.738,34.668,29.297,-5.371
1620953428.266,0.488,33.691,29.297,27.344,-7.324
1620953428.270,-0.977,40.039,28.320,15.137,-23.438
1620953428.274,9.277,37.598,38.574,14.648,-28.320
1620953428.277,26.855,42.969,34.180,23.926,23.438
1620953428.281,27.344,45.898,31.738,10.254,2.441
1620953428.285,20.996,42.480,33.203,0.977,30.273
1620953428.289,18.555,40.527,30.762,0.977,33.691
1620953428.293,21.484,41.504,40.039,7.324,80.566
1620953428.288,37.598,47.363,43.457,17.578,117.188
1620953428.292,34.180,40.039,30.762,11.719,42.480
1620953428.296,19.531,32.227,24.414,9.277,27.344
1620953428.300,26.367,35.645,24.902,23.438,7.812
1620953428.304,37.109,40.527,34.180,41.016,63.965
1620953428.308,20.996,35.645,35.645,31.738,89.844
1620953428.312,20.020,37.598,32.715,26.367,-5.859
1620953428.315,31.738,40.039,37.109,45.410,-26.367
1620953428.319,24.902,34.668,29.785,40.527,-3.418
1620953428.323,17.090,37.598,20.508,28.809,-28.809
1620953428.327,22.949,43.945,31.250,30.273,2.441
1620953428.331,34.180,47.852,40.527,34.180,37.109
1620953428.344,42.480,43.945,36.133,45.898,28.320
1620953428.348,39.062,39.062,32.715,37.109,20.020
1620953428.352,28.320,41.504,33.691,28.809,61.523
1620953428.356,13.184,43.457,39.551,39.062,51.270
1620953428.360,3.418,39.551,36.621,36.621,22.949
1620953428.364,20.020,44.922,32.715,32.227,50.781
1620953428.368,45.410,50.293,40.039,34.180,52.246
1620953428.371,41.504,46.387,33.203,32.715,28.320
1620953428.375,41.992,47.852,31.738,32.715,-11.719
1620953428.379,42.480,49.316,41.016,33.203,-22.461
1620953428.383,22.949,43.945,37.109,16.602,-5.859
1620953428.387,24.902,41.992,31.738,5.371,43.945
1620953428.383,17.578,41.992,34.668,10.254,36.621
1620953428.387,20.508,45.410,38.086,24.902,20.996
1620953428.391,18.066,48.828,37.109,23.438,41.504
1620953428.395,6.348,38.086,33.203,1.953,76.172
1620953428.399,9.766,32.715,34.668,1.465,59.082
1620953428.403,17.578,38.574,35.645,19.043,2.930
1620953428.407,16.602,37.598,38.574,23.438,1.465
1620953428.410,10.254,36.133,40.039,20.508,17.578
1620953428.414,6.836,36.621,41.016,28.809,56.152
1620953428.418,4.883,31.738,46.387,40.039,75.684
1620953428.422,17.578,35.156,44.434,45.410,88.379
1620953428.426,18.066,41.016,37.109,33.203,40.527
1620953428.439,16.113,45.898,44.434,30.762,9.277
1620953428.443,32.227,44.922,44.922,39.062,59.570
1620953428.447,39.062,42.969,40.527,35.645,34.180
1620953428.451,33.691,41.992,41.992,34.668,37.109
1620953428.455,22.461,36.621,36.133,31.738,29.297
1620953428.459,20.020,38.086,32.227,29.297,25.391
1620953428.463,32.715,43.457,33.203,40.039,117.676
1620953428.466,31.738,43.945,36.621,41.016,137.207
1620953428.470,21.973,42.480,33.691,25.879,83.008
1620953428.474,30.762,41.016,34.180,26.855,-0.488
1620953428.478,40.039,39.551,39.062,32.715,-4.883
1620953428.482,46.875,39.551,39.551,25.391,-25.879
1620953428.477,39.062,42.480,41.504,21.484,-32.715
1620953428.481,13.184,43.457,35.156,14.160,-16.113
1620953428.485,8.301,41.504,29.297,19.043,-63.477
1620953428.489,12.695,38.574,28.809,19.531,-26.367
1620953428.493,20.508,40.527,33.691,9.277,4.883
1620953428.497,40.527,44.434,39.062,11.230,-3.906
1620953428.501,40.527,34.668,34.668,9.277,40.039
1620953428.504,7.812,31.738,30.273,12.207,63.965
1620953428.508,-6.348,39.062,33.203,19.043,15.137
1620953428.512,11.719,41.504,40.527,23.438,-25.391
1620953428.516,18.066,40.039,37.109,37.598,-35.645
1620953428.520,27.832,35.645,34.668,45.410,11.719
1620953428.532,31.250,34.668,34.668,43.457,4.883
1620953428.536,22.949,37.598,33.691,35.156,-18.555
1620953428.540,23.438,40.039,40.527,40.527,7.812
1620953428.544,34.668,42.480,47.852,53.223,9.766
1620953428.548,41.504,39.551,47.363,43.457,-31.250
1620953428.552,35.156,41.992,46.875,34.668,-15.137
1620953428.556,35.645,48.340,51.758,41.504,17.090
1620953428.559,37.598,45.898,58.105,40.039,20.996
1620953428.563,22.949,39.551,51.270,35.156,24.414
1620953428.567,17.578,39.062,44.434,43.945,58.594
1620953428.571,27.344,44.922,41.992,44.922,60.547
1620953428.575,23.438,36.133,33.691,26.855,38.086
1620953428.569,32.715,36.133,40.527,38.574,23.926
1620953428.573,61.035,47.363,49.316,49.316,20.508
1620953428.577,50.293,46.387,46.387,29.785,-28.320
1620953428.581,22.949,45.410,40.039,29.785,-30.762
1620953428.585,19.531,43.945,41.016,35.645,-14.160
1620953428.589,22.461,45.410,44.434,32.227,-35.156
1620953428.593,20.996,46.387,41.016,21.484,-16.113
1620953428.596,15.625,41.016,39.062,19.043,4.883
1620953428.600,19.531,44.922,43.457,32.715,31.250
1620953428.604,27.832,47.363,47.852,32.715,63.477
1620953428.608,23.926,41.992,47.363,19.531,41.504
1620953428.612,20.020,41.992,44.434,3.906,-0.488
1620953428.625,28.809,43.457,41.992,7.812,-9.766
1620953428.629,36.621,43.945,38.574,20.508,11.230
1620953428.633,36.621,41.992,38.086,19.043,14.160
1620953428.637,28.320,41.016,36.133,22.949,-48.340
1620953428.641,30.273,39.551,31.250,25.879,-32.715
1620953428.645,39.062,38.086,36.621,36.621,-12.695
1620953428.649,30.273,42.480,40.039,44.434,34.668
1620953428.652,23.438,41.992,40.039,36.621,37.598
1620953428.656,26.367,39.062,42.480,40.039,10.742
1620953428.660,31.738,36.133,36.133,47.363,10.254
1620953428.664,29.785,32.227,26.855,33.691,7.324
1620953428.668,27.832,31.738,26.367,16.113,-1.465
1620953428.664,31.738,35.156,36.133,18.555,1.465
1620953428.668,33.691,37.109,40.527,36.621,44.434
1620953428.672,32.227,41.016,37.109,37.598,28.320
1620953428.676,27.344,41.992,41.992,31.250,14.160
1620953428.680,25.391,44.922,44.434,35.645,31.738
1620953428.684,27.344,46.387,45.410,37.109,65.430
1620953428.688,19.531,39.062,42.480,41.992,46.875
1620953428.691,5.371,29.785,40.039,25.879,10.254
1620953428.695,8.301,34.180,40.527,9.766,22.949
1620953428.699,22.461,40.039,36.621,12.207,36.133
1620953428.703,36.133,41.992,38.086,21.484,2.441
1620953428.707,29.785,38.574,41.016,20.020,0.488
1620953428.720,27.344,43.457,38.574,13.672,1.465
1620953428.724,39.551,46.387,40.527,21.484,4.883
1620953428.728,34.668,40.039,46.387,39.062,38.574
1620953428.732,37.109,41.016,50.293,53.711,77.148
1620953428.736,39.062,44.434,47.852,49.316,63.965
1620953428.740,14.648,42.480,43.945,25.879,64.941
1620953428.744,4.883,48.828,37.109,27.344,87.402
1620953428.747,8.301,54.688,28.320,34.180,34.180
1620953428.751,4.395,45.410,25.879,24.902,-9.277
1620953428.755,-3.906,41.992,24.414,17.090,4.883
1620953428.759,9.277,44.434,29.297,32.715,6.836
1620953428.763,21.484,45.898,41.504,38.086,67.383
1620953428.757,9.277,43.945,48.828,17.578,34.180
1620953428.761,0.000,41.016,29.785,-0.488,-13.184
1620953428.765,6.348,46.387,23.438,1.465,9.766
1620953428.769,-1.953,40.039,26.855,10.742,14.648
1620953428.773,0.977,40.039,29.785,18.066,17.578
1620953428.777,5.371,49.316,39.551,17.578,-39.062
1620953428.781,-0.488,54.199,37.109,15.137,-44.922
1620953428.784,4.883,52.734,32.227,5.371,0.977
1620953428.788,8.301,47.363,33.691,-7.324,26.855
1620953428.792,6.836,48.340,33.203,-16.602,37.109
1620953428.796,14.160,58.594,28.809,-20.996,-7.812
1620953428.800,38.574,58.594,30.273,-3.418,12.695
1620953428.813,40.039,46.875,33.203,9.277,47.363
1620953428.817,18.066,46.875,34.180,6.348,52.734
1620953428.821,14.160,54.199,35.645,-1.953,42.480
1620953428.825,18.066,51.270,28.809,1.465,9.277
1620953428.829,24.902,40.039,29.785,21.484,10.254
1620953428.833,17.578,40.039,40.527,32.715,41.992
1620953428.837,-7.324,45.898,38.086,22.461,26.855
1620953428.840,1.953,42.480,34.668,29.297,19.531
1620953428.844,10.742,38.086,39.062,39.062,21.973
1620953428.848,6.836,40.527,38.086,27.344,23.438
1620953428.852,-5.371,34.668,32.227,12.207,25.391
1620953428.856,-1.465,37.109,30.762,17.578,-5.371
1620953428.850,7.324,42.969,37.109,28.320,40.039
1620953428.854,0.977,36.133,41.504,29.785,70.312
1620953428.858,-1.953,36.133,40.039,26.367,12.207
1620953428.862,-2.930,32.715,34.180,19.531,-2.441
1620953428.866,-3.906,26.367,31.250,8.789,18.555
1620953428.870,3.906,24.902,27.344,-4.395,44.922
1620953428.874,19.043,27.832,31.250,5.859,35.156
1620953428.877,17.090,31.250,40.039,9.277,-5.859
1620953428.881,6.836,29.297,38.086,4.395,0.977
1620953428.885,-13.184,23.926,39.551,7.324,-1.465
1620953428.889,-1.465,30.273,46.387,13.672,-15.625
1620953428.893,9.277,37.598,49.316,14.648,-0.488
1620953428.907,10.254,35.156,44.922,11.230,11.719
1620953428.911,24.902,34.668,42.480,18.066,39.062
1620953428.915,31.250,39.551,42.480,22.461,74.219
1620953428.919,33.691,35.645,39.551,17.578,33.691
1620953428.923,39.551,34.180,34.180,11.230,17.090
1620953428.927,40.527,36.621,33.203,25.391,52.246
1620953428.931,34.668,39.551,39.062,31.738,53.711
1620953428.934,25.879,41.504,39.551,20.996,20.508
1620953428.938,18.555,40.527,38.086,24.414,-39.062
1620953428.942,23.438,41.016,34.668,28.320,18.555
1620953428.946,33.691,38.574,30.762,27.832,47.363
1620953428.950,22.949,37.109,33.691,24.902,32.715
1620953428.945,2.441,40.527,35.156,20.020,1.465
1620953428.949,0.977,35.156,40.039,20.508,18.066
1620953428.953,3.418,32.227,39.062,25.879,91.797
1620953428.957,-2.930,36.621,32.715,25.391,25.879
1620953428.961,-3.906,42.480,35.156,20.508,1.465
1620953428.965,11.230,44.922,41.016,28.320,56.152
1620953428.969,20.996,45.410,41.992,30.273,16.602
1620953428.972,27.344,54.199,46.875,30.762,-20.020
1620953428.976,39.551,56.641,51.270,37.598,69.336
1620953428.980,42.969,47.852,42.480,25.391,132.812
1620953428.984,41.504,44.434,41.016,22.949,97.168
1620953428.988,26.367,44.922,45.410,30.273,53.223
1620953429.000,17.090,43.457,48.340,30.273,-18.555
1620953429.004,12.695,42.480,48.828,19.531,-2.930
1620953429.008,17.090,42.480,47.363,18.555,41.016
1620953429.012,33.203,48.340,50.781,36.133,63.965
1620953429.016,28.320,46.387,46.875,33.691,41.992
1620953429.020,15.137,40.527,41.504,21.484,19.043
1620953429.024,23.438,45.410,41.992,19.043,57.129
1620953429.027,29.297,43.945,38.574,17.090,27.344
1620953429.031,28.809,42.480,32.715,25.391,44.434
1620953429.035,26.367,45.898,36.133,22.461,23.438
1620953429.039,26.367,50.781,43.457,24.902,12.207
1620953429.043,32.227,52.246,40.039,33.203,5.859
1620953429.038,26.855,44.922,32.715,24.414,41.016
1620953429.042,30.273,42.969,41.992,32.227,49.316
1620953429.046,25.879,43.945,41.016,25.879,-17.578
1620953429.050,29.785,45.898,34.668,20.508,2.441
1620953429.054,47.363,53.711,51.270,38.086,-1.465
1620953429.058,28.809,48.340,47.852,28.320,16.113
1620953429.062,6.348,33.203,29.297,10.254,43.457
1620953429.065,8.301,29.785,31.738,26.367,4.883
1620953429.069,22.949,35.156,41.016,33.691,41.016
1620953429.073,17.578,37.598,40.527,14.648,44.434
1620953429.077,-5.859,34.180,37.598,2.930,33.691
1620953429.081,-10.254,34.180,31.250,5.859,4.883
1620953429.094,11.719,46.875,38.574,21.973,9.766
1620953429.098,17.578,49.316,39.062,27.344,72.266
1620953429.102,3.418,45.898,34.668,24.414,53.223
1620953429.106,5.371,41.992,39.062,24.902,-23.438
1620953429.110,15.137,34.668,30.273,20.020,10.254
1620953429.114,39.062,43.945,34.668,37.598,16.602
1620953429.118,41.016,44.922,37.109,40.039,-14.160
1620953429.121,27.344,43.945,34.668,31.738,14.648
1620953429.125,36.621,48.828,34.180,39.551,16.602
1620953429.129,41.992,48.340,26.367,39.062,-23.438
1620953429.133,38.574,49.805,30.762,31.738,17.090
1620953429.137,29.297,50.781,30.273,16.113,62.012
1620953429.132,34.180,50.781,20.996,20.508,43.457
1620953429.136,50.293,45.898,21.973,37.109,14.160
1620953429.140,51.758,44.922,25.879,37.109,-18.066
1620953429.144,51.758,52.246,27.832,32.227,-10.254
1620953429.148,34.668,43.457,33.203,32.715,-7.324
1620953429.152,26.367,35.645,39.062,40.527,2.441
1620953429.156,29.297,42.480,39.062,39.551,20.996
1620953429.159,27.344,46.387,40.527,31.738,23.438
1620953429.163,28.320,45.898,41.016,23.926,49.805
1620953429.167,34.180,43.945,37.109,22.461,62.500
1620953429.171,25.879,38.574,36.133,17.090,37.109
1620953429.175,3.906,33.691,32.715,2.441,-2.930
1620953429.188,17.578,40.527,33.691,5.859,-34.668
1620953429.192,25.391,46.387,44.922,20.996,-9.277
1620953429.196,28.809,50.293,49.316,32.227,36.621
1620953429.200,39.551,45.410,43.457,22.949,40.039
1620953429.204,33.691,39.551,43.457,20.996,-20.508
1620953429.208,13.672,39.551,48.828,33.691,5.371
1620953429.212,4.395,39.062,50.293,33.691,47.852
1620953429.215,14.648,46.875,46.875,29.785,9.766
1620953429.219,13.672,45.898,38.574,23.438,-5.371
1620953429.223,6.836,34.180,31.250,20.020,-18.066
1620953429.227,16.602,40.039,34.668,34.668,25.879
1620953429.231,23.438,42.969,33.691,41.504,51.270
1620953429.245,18.066,40.039,41.992,32.227,40.527
1620953429.249,21.973,42.969,43.945,26.367,-6.836
1620953429.253,37.598,38.574,36.621,35.156,-26.855
1620953429.257,47.363,28.320,46.387,52.246,51.758
1620953429.261,24.414,25.879,48.340,31.738,55.176
1620953429.265,11.719,34.180,45.898,11.230,-21.973
1620953429.269,25.391,50.781,34.668,13.184,-13.184
1620953429.272,33.691,57.129,26.855,20.996,42.480
1620953429.276,21.484,52.734,35.645,17.578,2.930
1620953429.280,1.953,43.457,35.156,-4.395,20.020
1620953429.284,9.277,38.574,33.691,0.000,29.297
1620953429.288,19.043,40.039,41.504,8.301,-41.992
1620953429.282,12.695,42.969,38.574,13.184,2.441
1620953429.286,8.789,50.293,34.668,18.066,17.578
1620953429.290,14.160,53.223,41.016,23.926,-32.715
1620953429.294,25.879,44.922,45.410,36.133,19.531
1620953429.298,25.391,35.645,48.340,25.391,40.039
1620953429.302,16.602,40.527,42.480,10.254,42.969
1620953429.306,16.113,46.875,30.273,8.301,64.941
1620953429.309,17.090,46.875,27.832,14.160,22.461
1620953429.313,21.973,52.734,29.297,24.414,-30.762
1620953429.317,18.555,51.758,27.832,17.578,-63.965
1620953429.321,25.391,52.734,25.391,15.625,-32.715
1620953429.325,33.203,50.781,27.832,20.996,27.832
1620953429.319,10.742,43.945,28.320,23.438,7.812
1620953429.323,1.953,41.016,29.785,23.926,6.348
1620953429.327,12.207,40.039,34.668,26.367,-35.645
1620953429.331,23.926,38.574,37.109,31.738,-14.648
1620953429.335,19.531,38.574,35.645,35.156,20.020
1620953429.339,11.719,47.363,35.645,36.133,8.789
1620953429.343,11.230,48.340,39.062,18.555,2.441
1620953429.346,15.137,44.922,36.621,12.207,-5.859
1620953429.350,25.391,45.410,30.273,25.391,36.621
1620953429.354,32.227,41.992,31.250,24.902,69.824
1620953429.358,31.250,44.434,38.574,22.949,64.453
1620953429.362,32.715,48.828,41.504,22.461,47.363
1620953429.376,45.410,49.316,40.527,31.738,75.195
1620953429.380,49.805,50.781,42.969,40.039,52.734
1620953429.384,52.246,55.664,41.016,33.203,42.480
1620953429.388,35.645,54.199,41.992,18.066,24.902
1620953429.392,24.414,44.434,38.086,18.555,10.742
1620953429.396,52.246,53.223,39.551,48.340,52.246
1620953429.400,46.875,56.152,40.527,38.574,1.465
1620953429.403,16.602,46.875,32.715,20.020,-34.668
1620953429.407,13.184,46.387,39.062,37.109,-2.930
1620953429.411,21.484,43.945,40.039,41.504,22.461
1620953429.415,14.160,44.434,38.574,37.598,32.227
1620953429.419,-7.812,41.016,41.504,31.250,29.785
1620953429.413,0.000,44.922,37.598,30.273,-15.137
1620953429.417,20.020,52.246,34.180,39.062,-24.414
1620953429.421,31.250,54.199,35.156,45.898,62.012
1620953429.425,22.949,49.316,34.180,36.621,95.215
1620953429.429,20.020,45.410,35.156,24.414,56.641
1620953429.433,27.344,46.387,29.785,26.855,14.160
1620953429.437,27.832,47.852,28.320,29.297,-9.766
1620953429.440,34.180,51.270,35.156,29.297,39.062
1620953429.444,30.762,45.898,38.086,22.461,59.082
1620953429.448,31.250,39.551,31.250,28.320,20.020
1620953429.452,37.109,42.969,24.414,33.203,0.977
1620953429.456,40.039,44.434,31.250,25.879,55.176
1620953429.469,33.691,41.504,35.156,18.066,77.637
1620953429.473,21.973,42.480,33.203,17.578,31.738
1620953429.477,36.133,50.293,29.297,38.574,5.859
1620953429.481,44.922,51.270,31.738,40.527,3.906
1620953429.485,38.086,43.457,44.434,17.578,-10.254
1620953429.489,21.973,37.598,45.898,12.695,-26.855
1620953429.493,10.742,42.480,40.527,26.855,76.172
1620953429.496,26.367,51.758,40.039,32.715,44.434
1620953429.500,31.250,43.457,46.875,30.762,-35.156
1620953429.504,17.090,34.668,44.434,28.320,42.480
1620953429.508,8.301,34.668,37.109,27.832,82.520
1620953429.512,29.785,41.016,40.039,35.156,63.477
1620953429.508,47.363,52.734,43.945,33.203,5.859
1620953429.512,37.109,48.828,45.410,22.461,-26.855
1620953429.516,26.855,41.504,39.551,19.043,-21.484
1620953429.520,19.531,47.852,38.574,20.508,41.992
1620953429.524,15.625,40.527,39.551,13.184,76.172
1620953429.528,4.395,33.691,33.203,5.859,42.480
1620953429.532,0.000,38.574,41.016,19.531,29.785
1620953429.535,14.160,33.203,42.480,34.180,9.277
1620953429.539,28.320,26.367,38.086,45.410,23.438
1620953429.543,43.457,31.250,43.945,56.641,39.062
1620953429.547,35.645,38.574,48.340,46.875,43.945
1620953429.551,21.484,38.574,38.086,30.273,-16.113
1620953429.563,32.715,54.199,30.273,42.480,-12.695
1620953429.567,24.902,59.570,23.438,26.367,11.230
1620953429.571,14.160,54.199,22.461,5.859,-26.855
1620953429.575,26.367,59.082,24.902,20.508,-0.488
1620953429.579,25.391,46.875,20.996,27.832,-12.695
1620953429.583,33.203,37.109,25.879,30.273,-34.180
1620953429.587,27.344,43.457,30.273,14.648,-44.434
1620953429.590,15.625,41.992,24.902,3.906,-13.184
1620953429.594,36.621,47.363,36.133,26.855,51.270
1620953429.598,43.457,49.316,44.434,33.691,70.312
1620953429.602,29.297,39.551,30.762,10.742,69.336
1620953429.606,36.133,41.992,38.086,17.578,14.648
1620953429.600,43.945,47.363,39.551,19.531,4.395
1620953429.604,41.992,54.688,42.480,14.648,20.996
1620953429.608,41.992,48.340,54.688,16.602,34.668
1620953429.612,37.598,44.434,40.527,6.348,17.090
1620953429.616,33.203,47.852,38.086,9.766,-8.301
1620953429.620,26.367,45.410,44.434,16.602,27.832
1620953429.624,17.578,48.828,38.574,10.742,87.891
1620953429.627,17.090,48.828,37.109,7.324,104.980
1620953429.631,24.414,50.293,41.504,24.414,39.062
1620953429.635,32.227,48.828,50.293,33.203,29.297
1620953429.639,38.086,40.527,49.805,20.508,46.875
1620953429.643,41.504,42.480,44.922,20.020,0.488
1620953429.657,44.434,40.039,46.875,34.668,-10.254
1620953429.661,36.133,33.203,40.527,35.156,-24.414
1620953429.665,8.789,34.180,40.039,39.551,-47.363
1620953429.669,1.465,39.062,44.434,45.410,-44.434
1620953429.673,15.625,40.039,49.805,41.504,35.645
1620953429.677,17.090,37.109,51.758,52.734,43.945
1620953429.681,17.578,42.480,43.457,55.176,4.395
1620953429.684,26.367,50.781,45.410,46.387,5.371
1620953429.688,21.973,41.504,49.316,36.133,18.555
1620953429.692,12.207,27.344,42.969,33.691,34.180
1620953429.696,17.090,25.879,40.039,36.621,25.391
1620953429.700,30.273,34.180,38.574,30.273,-9.277
1620953429.694,25.879,35.156,32.715,15.137,-17.578
1620953429.698,20.996,37.598,32.715,19.531,3.906
1620953429.702,29.297,41.016,36.621,25.879,-13.672
1620953429.706,35.645,41.016,38.574,20.020,8.789
1620953429.710,30.273,46.387,42.969,11.719,-46.387
1620953429.714,36.133,51.758,47.363,21.484,-57.129
1620953429.718,35.645,41.992,37.598,26.367,30.762
1620953429.721,16.113,27.832,31.250,13.672,46.387
1620953429.725,20.508,29.297,40.527,7.812,34.668
1620953429.729,26.367,42.480,43.457,14.160,21.973
1620953429.733,23.438,40.527,43.945,25.391,23.926
1620953429.737,19.043,33.203,41.016,27.344,40.039
1620953429.750,14.160,31.250,35.645,16.113,15.625
1620953429.754,13.672,30.762,37.598,9.766,16.113
1620953429.758,15.625,36.133,46.875,24.902,21.973
1620953429.762,20.020,36.621,46.875,32.715,31.250
1620953429.766,25.391,31.738,41.992,30.762,52.246
1620953429.770,21.484,30.273,42.969,39.551,-15.625
1620953429.774,27.832,30.273,45.410,51.758,-37.598
1620953429.777,28.809,33.691,42.969,40.039,36.621
1620953429.781,9.277,45.410,29.297,11.719,37.598
1620953429.785,16.602,62.500,30.273,11.719,41.992
1620953429.789,35.156,59.082,42.480,24.902,54.199
1620953429.793,41.992,50.781,45.410,19.043,4.395
1620953429.789,40.527,58.594,41.992,21.973,11.719
1620953429.793,8.301,57.617,36.133,11.230,-2.930
1620953429.797,-5.859,58.594,31.738,5.371,0.000
1620953429.801,11.719,62.500,39.062,20.996,8.301
1620953429.805,7.324,57.617,51.758,19.531,47.852
1620953429.809,7.812,64.941,52.246,26.855,88.379
1620953429.813,14.648,69.824,39.551,28.809,13.672
1620953429.816,5.371,61.035,32.715,15.625,27.832
1620953429.820,8.301,50.781,36.133,14.648,54.199
1620953429.824,-0.977,49.805,36.621,-2.930,24.902
1620953429.828,-3.418,59.570,30.762,-11.230,17.090
1620953429.832,10.254,60.547,31.250,-3.906,54.199
1620953429.844,6.836,55.664,35.156,2.930,-2.930
1620953429.848,0.488,57.129,29.297,8.789,-25.879
1620953429.852,8.301,55.176,28.320,-0.488,36.621
1620953429.856,15.625,62.012,41.504,-0.488,55.176
1620953429.860,21.484,63.965,38.086,2.441,66.895
1620953429.864,31.738,56.641,27.344,2.441,54.688
1620953429.868,37.109,55.176,33.691,5.371,67.383
1620953429.871,23.926,56.641,40.527,14.160,44.922
1620953429.875,9.766,56.152,34.180,19.043,75.684
1620953429.879,13.672,45.898,33.691,21.484,56.152
1620953429.883,17.090,39.551,36.133,17.090,-42.969
1620953429.887,25.879,41.504,39.062,21.973,2.441
1620953429.900,38.574,43.457,45.410,33.203,-0.977
1620953429.904,32.227,45.898,40.039,32.715,-24.414
1620953429.908,17.578,46.875,35.645,37.109,43.945
1620953429.912,8.301,41.992,34.180,28.809,47.852
1620953429.916,12.695,39.551,36.621,29.297,41.016
1620953429.920,27.344,41.504,39.062,50.293,57.129
1620953429.924,17.090,31.738,39.062,46.387,17.578
1620953429.927,4.395,28.320,42.480,37.598,15.625
1620953429.931,7.812,32.715,45.898,40.039,11.719
1620953429.935,21.484,32.715,41.992,51.270,-31.250
1620953429.939,36.133,39.551,39.062,51.758,-0.488
1620953429.943,23.438,46.875,36.133,32.715,36.621
1620953429.938,-3.906,45.898,21.973,21.484,33.691
1620953429.942,9.766,44.434,21.484,32.227,66.406
1620953429.946,17.578,43.457,24.902,32.227,44.434
1620953429.950,-0.977,38.574,16.602,11.230,26.855
1620953429.954,0.977,34.180,22.461,5.371,14.648
1620953429.958,16.113,37.109,29.297,21.973,9.766
1620953429.962,19.531,41.016,20.508,25.391,55.176
1620953429.965,29.785,44.434,20.508,26.855,65.918
1620953429.969,36.133,39.062,25.391,25.391,93.750
1620953429.973,39.062,41.016,29.297,26.855,30.762
1620953429.977,36.621,42.969,27.832,30.762,-14.648
1620953429.981,42.969,39.551,23.438,23.926,-10.742
1620953429.994,47.852,42.969,27.832,28.809,-26.367
1620953429.998,41.992,40.039,34.180,31.250,0.000
1620953430.002,50.781,41.504,41.992,41.016,32.227
1620953430.006,58.105,43.457,44.922,55.664,3.418
1620953430.010,45.898,41.504,47.852,55.176,-7.812
1620953430.014,28.320,42.480,39.062,38.574,52.246
1620953430.018,38.574,52.734,34.668,44.922,62.988
1620953430.021,45.410,42.969,37.598,47.852,-23.926
1620953430.025,28.809,31.738,36.133,31.738,-27.832
1620953430.029,23.926,41.016,38.086,32.227,24.414
1620953430.033,31.250,42.969,38.574,37.109,5.371
1620953430.037,39.551,41.992,38.574,36.133,89.844
1620953430.032,34.180,40.527,39.551,22.949,86.914
1620953430.036,18.066,41.016,41.016,28.320,-7.812
1620953430.040,15.137,42.969,39.551,29.297,-31.250
1620953430.044,8.301,41.016,33.203,14.648,-9.766
1620953430.048,9.766,40.039,35.156,23.926,19.531
1620953430.052,7.324,40.039,35.156,16.113,-11.719
1620953430.056,6.836,44.922,40.527,14.160,-32.227
1620953430.059,15.625,38.574,47.852,26.367,-54.688
1620953430.063,4.883,33.691,43.457,14.648,-69.336
1620953430.067,3.418,44.434,42.480,5.859,0.488
1620953430.071,9.277,50.293,38.574,7.324,56.152
1620953430.075,15.137,44.922,32.715,10.254,16.602
1620953430.071,37.109,52.246,35.645,29.297,7.812
1620953430.075,47.363,49.805,39.551,37.598,23.926
1620953430.079,30.762,37.598,37.598,29.297,57.617
1620953430.083,29.785,45.898,28.320,28.809,26.855
1620953430.087,43.457,51.758,32.227,39.062,-24.902
1620953430.091,30.762,39.062,38.086,25.391,10.742
1620953430.095,21.973,30.273,30.273,9.766,25.391
1620953430.098,20.020,39.551,30.762,11.719,-9.277
1620953430.102,20.508,36.133,37.598,17.090,16.113
1620953430.106,29.297,38.086,39.062,24.902,68.359
1620953430.110,30.762,42.969,41.992,23.438,-3.906
1620953430.114,32.715,33.203,43.457,17.090,13.184
1620953430.125,25.391,32.715,41.504,16.602,15.137
1620953430.129,24.414,31.738,47.363,36.133,-10.742
1620953430.133,20.996,29.785,47.363,32.227,28.320
1620953430.137,8.789,27.344,41.016,18.555,-22.461
1620953430.141,5.859,29.785,42.480,34.180,2.441
1620953430.145,14.160,40.527,43.457,39.062,7.324
1620953430.149,21.484,45.410,43.457,34.668,-11.230
1620953430.152,15.137,39.551,42.480,27.832,47.363
1620953430.156,17.578,33.691,44.434,26.367,41.016
1620953430.160,28.809,40.039,41.504,26.855,25.391
1620953430.164,25.879,36.133,36.621,18.066,24.902
1620953430.168,22.461,32.227,35.645,9.277,28.809
1620953430.163,14.648,30.762,37.109,8.301,34.180
1620953430.167,-7.324,35.156,38.574,13.672,29.297
1620953430.171,2.441,39.062,43.457,29.297,-0.488
1620953430.175,24.414,41.016,45.410,32.715,11.719
1620953430.179,22.949,43.945,41.016,20.508,23.438
1620953430.183,23.438,41.992,41.992,27.832,4.395
1620953430.187,20.020,40.527,41.504,39.551,-4.395
1620953430.190,21.973,46.387,41.992,39.062,-27.832
1620953430.194,29.297,52.246,47.363,28.320,-60.547
1620953430.198,15.137,46.875,45.410,18.555,-67.871
1620953430.202,6.836,39.062,29.297,12.695,-32.227
1620953430.206,21.973,45.898,34.668,20.996,14.648
1620953430.219,30.273,47.852,47.852,38.086,4.395
1620953430.223,20.020,41.992,43.945,31.250,12.695
1620953430.227,21.484,39.551,39.062,34.180,-1.953
1620953430.231,33.203,40.039,43.945,46.387,37.109
1620953430.235,23.926,37.109,41.504,29.297,46.875
1620953430.239,13.184,37.598,35.156,13.672,21.973
1620953430.243,28.320,44.922,44.922,23.926,78.613
1620953430.246,29.297,45.410,44.922,30.273,50.781
1620953430.250,19.043,38.086,41.504,25.391,-43.457
1620953430.254,26.367,38.086,46.387,26.855,-3.906
1620953430.258,23.926,42.969,40.527,28.809,95.703
1620953430.262,21.484,32.715,33.203,28.320,78.613
1620953430.257,21.973,31.738,36.133,30.273,15.137
1620953430.261,13.184,39.062,39.062,31.250,5.371
1620953430.265,12.695,34.668,38.086,23.438,29.785
1620953430.269,20.508,32.227,33.691,22.949,-36.133
1620953430.273,41.992,39.551,29.785,21.973,-10.254
1620953430.277,40.527,41.504,25.879,10.254,-15.137
1620953430.281,12.207,38.086,23.438,10.742,-96.680
1620953430.284,8.789,46.387,29.297,24.414,-63.477
1620953430.288,12.695,48.828,34.668,24.414,-2.930
1620953430.292,2.930,36.621,26.367,0.000,46.875
1620953430.296,6.836,33.691,20.996,0.488,45.410
1620953430.300,32.227,33.691,27.832,27.344,36.621
1620953430.313,28.809,37.109,29.297,25.879,0.488
1620953430.317,4.395,40.527,28.809,2.930,34.668
1620953430.321,3.418,43.945,22.461,-1.953,75.684
1620953430.325,13.184,50.781,25.879,11.719,64.453
1620953430.329,14.160,43.945,31.738,25.391,36.133
1620953430.333,22.461,41.992,27.832,35.645,-40.039
1620953430.337,33.203,49.805,34.668,40.527,-41.992
1620953430.340,29.785,49.805,38.574,39.062,-1.953
1620953430.344,27.344,40.527,33.691,34.668,51.758
1620953430.348,27.832,36.133,31.250,38.574,58.594
1620953430.352,23.438,37.598,35.645,30.273,0.000
1620953430.356,23.926,38.086,36.133,16.113,-23.438
1620953430.352,37.598,48.340,28.320,23.926,-10.254
1620953430.356,40.039,45.410,21.973,28.320,44.434
1620953430.360,19.531,33.691,20.508,18.066,33.203
1620953430.364,4.883,28.320,22.461,14.648,31.250
1620953430.368,15.625,25.879,20.020,18.555,61.035
1620953430.372,33.691,30.273,21.973,26.855,-4.883
1620953430.376,31.738,39.062,29.297,27.832,-9.277
1620953430.379,16.113,43.945,27.832,23.438,56.152
1620953430.383,-5.859,36.621,20.020,9.766,34.180
1620953430.387,5.371,36.621,25.879,17.090,-34.668
1620953430.391,15.625,41.016,34.668,25.879,7.324
1620953430.395,8.301,36.133,37.598,14.648,29.785
1620953430.407,6.348,32.227,30.762,3.906,-22.461
1620953430.411,7.812,41.016,34.180,7.324,-2.441
1620953430.415,12.695,39.551,29.297,8.789,21.484
1620953430.419,13.184,34.180,26.855,10.742,5.371
1620953430.423,17.090,41.992,35.645,19.531,-19.531
1620953430.427,28.809,42.480,31.738,33.203,31.250
1620953430.431,31.250,36.133,26.367,36.133,32.715
1620953430.434,26.367,40.039,27.832,33.691,15.137
1620953430.438,34.180,51.270,34.180,41.504,77.148
1620953430.442,36.133,41.992,29.785,45.898,66.895
1620953430.446,29.297,30.762,28.809,52.246,65.918
1620953430.450,38.086,30.762,32.715,48.828,47.363
1620953430.444,47.363,30.273,29.297,36.621,24.902
1620953430.448,48.340,36.621,23.926,35.156,19.531
1620953430.452,24.902,27.832,18.555,39.551,18.066
1620953430.456,18.555,28.320,21.484,41.016,21.973
1620953430.460,19.043,30.762,26.855,42.969,62.500
1620953430.464,2.930,29.785,29.297,39.551,63.965
1620953430.468,15.137,34.180,34.180,41.016,13.184
1620953430.471,32.227,34.180,33.691,49.805,-18.555
1620953430.475,23.926,33.691,33.203,39.551,2.441
1620953430.479,7.812,32.227,34.180,19.043,38.574
1620953430.483,21.973,30.762,30.762,18.555,0.488
1620953430.487,33.691,35.645,30.273,20.020,-16.113
1620953430.500,20.508,36.133,27.344,0.977,5.371
1620953430.504,13.184,31.250,32.715,-10.742,-43.457
1620953430.508,19.531,41.016,41.016,-1.465,-22.949
1620953430.512,29.297,52.246,38.574,9.766,13.672
1620953430.516,28.320,51.270,35.156,0.488,25.391
1620953430.520,20.020,36.133,38.086,-17.090,32.227
1620953430.524,24.414,30.273,36.621,-7.812,-12.695
1620953430.527,18.066,33.691,35.156,9.766,0.488
1620953430.531,-8.301,29.297,31.250,6.348,-24.414
1620953430.535,-0.977,35.156,36.133,17.578,34.180
1620953430.539,20.996,44.922,44.434,44.434,81.055
1620953430.543,19.531,38.086,34.180,44.434,29.785
1620953430.538,20.508,33.203,35.156,41.016,34.180
1620953430.542,16.113,32.227,35.156,36.133,42.969
1620953430.546,18.555,29.785,33.691,35.645,17.578
1620953430.550,27.344,36.133,34.668,49.316,66.406
1620953430.554,28.320,38.574,39.551,64.453,68.359
1620953430.558,24.414,31.738,40.039,46.875,-9.277
1620953430.562,18.066,38.574,36.133,34.180,-6.836
1620953430.565,15.137,41.504,32.715,38.086,25.391
1620953430.569,17.578,34.180,30.273,41.992,-6.836
1620953430.573,12.207,34.668,31.250,37.109,27.832
1620953430.577,10.742,38.086,28.809,21.973,50.293
1620953430.581,32.715,36.133,34.180,33.691,32.715
1620953430.594,32.227,35.156,39.551,48.340,4.883
1620953430.598,25.879,41.992,41.504,44.922,4.395
1620953430.602,21.973,38.086,36.133,29.297,44.434
1620953430.606,14.160,29.297,31.738,18.066,44.922
1620953430.610,22.461,31.738,30.273,19.043,44.922
1620953430.614,31.250,33.691,30.762,20.508,41.016
1620953430.618,23.438,36.133,25.879,5.371,29.297
1620953430.621,15.137,39.062,26.367,-1.953,21.973
1620953430.625,9.766,34.668,28.809,0.977,69.336
1620953430.629,16.113,35.156,31.738,11.719,86.426
1620953430.633,23.438,39.062,39.062,20.020,27.832
1620953430.637,17.090,50.293,39.062,17.090,63.477
1620953430.633,14.160,46.875,33.203,15.137,72.266
1620953430.637,16.113,30.762,35.156,16.113,55.176
1620953430.641,29.297,31.738,36.621,18.066,90.820
1620953430.645,19.043,34.668,29.297,12.207,55.664
1620953430.649,32.227,44.922,38.086,31.250,51.758
1620953430.653,47.852,50.781,39.062,50.781,53.711
1620953430.657,31.250,40.039,32.715,57.617,26.855
1620953430.660,39.062,32.715,37.598,57.129,43.457
1620953430.664,36.621,30.273,40.039,39.551,-16.113
1620953430.668,36.133,34.668,40.527,35.156,-41.504
1620953430.672,48.828,49.805,34.668,44.434,10.254
1620953430.676,50.293,53.223,27.344,39.551,25.391
1620953430.688,34.180,50.293,25.391,28.320,15.137
1620953430.692,38.574,48.340,27.832,40.039,-20.996
1620953430.696,52.246,36.133,39.062,61.523,-5.371
1620953430.700,37.109,29.297,42.969,49.316,62.012
1620953430.704,41.504,38.574,23.438,29.785,9.277
1620953430.708,60.547,50.781,19.531,38.574,-22.949
1620953430.712,62.988,51.270,21.973,44.922,48.828
1620953430.715,49.316,46.875,5.371,26.367,-31.738
1620953430.719,36.133,38.086,7.812,13.672,-30.273
1620953430.723,48.340,38.086,23.438,35.156,39.062
1620953430.727,64.453,44.922,20.020,52.246,1.465
1620953430.731,49.316,40.527,9.766,40.039,0.488
1620953430.725,31.250,27.832,15.625,30.273,27.344
1620953430.729,33.691,20.996,25.391,30.273,17.578
1620953430.733,36.621,28.320,18.555,22.949,7.324
1620953430.737,45.410,29.785,10.254,26.855,28.809
1620953430.741,62.988,27.832,13.672,41.016,72.266
1620953430.745,62.500,38.086,23.438,40.039,70.312
1620953430.749,54.688,41.504,28.809,43.945,36.133
1620953430.752,48.340,28.809,26.367,63.965,-9.766
1620953430.756,38.574,21.484,16.113,55.176,-5.859
1620953430.760,29.785,28.809,18.066,42.480,-12.207
1620953430.764,29.297,29.785,30.273,60.059,-34.180
1620953430.768,53.223,27.344,36.133,83.984,39.551
1620953430.782,60.547,27.344,35.645,77.148,16.113
1620953430.786,38.086,25.879,26.855,51.270,-12.695
1620953430.790,36.621,35.645,18.555,46.387,-1.465
1620953430.794,48.340,37.598,16.113,51.758,3.906
1620953430.798,52.734,39.062,21.484,59.082,-8.789
1620953430.802,55.664,38.574,27.344,62.988,11.719
1620953430.806,56.641,35.156,26.367,45.898,94.727
1620953430.809,45.898,34.180,13.184,20.996,77.148
1620953430.813,67.871,41.016,21.973,39.551,-0.488
1620953430.817,83.496,46.387,36.621,57.617,39.062
1620953430.821,60.059,44.922,30.273,41.992,103.027
1620953430.825,37.109,42.480,27.832,43.945,73.242
1620953430.820,30.762,30.762,24.414,45.898,44.434
1620953430.824,26.855,26.855,21.484,25.391,13.672
1620953430.828,0.488,25.879,16.113,5.859,-24.414
1620953430.832,6.348,29.297,23.438,18.066,-10.254
1620953430.836,24.902,34.668,34.180,22.461,28.809
1620953430.840,23.926,39.062,31.738,12.207,-23.438
1620953430.844,25.391,43.945,31.250,12.207,-75.195
1620953430.847,29.785,42.480,35.645,12.695,-18.066
1620953430.851,37.109,41.016,30.273,10.742,48.340
1620953430.855,44.434,35.156,29.785,5.859,35.645
1620953430.859,40.039,36.621,37.598,11.230,-57.617
1620953430.863,31.250,44.434,41.504,24.902,-35.645
1620953430.875,31.250,40.039,50.293,43.945,-2.441
1620953430.879,19.531,32.715,41.992,44.922,15.625
1620953430.883,19.043,38.086,37.598,48.340,50.293
1620953430.887,17.090,38.574,39.062,50.293,11.230
1620953430.891,26.855,40.527,38.574,49.805,-17.090
1620953430.895,45.410,45.410,39.551,57.617,3.418
1620953430.899,32.715,47.363,34.668,47.852,43.945
1620953430.902,17.090,41.016,36.133,41.992,15.625
1620953430.906,21.973,41.504,38.086,45.410,7.324
1620953430.910,36.621,50.781,40.527,47.363,43.457
1620953430.914,43.457,45.898,45.410,43.457,22.949
1620953430.918,45.898,40.527,42.480,44.434,21.973
1620953430.914,49.316,39.551,41.992,50.781,47.852
1620953430.918,42.480,39.551,44.434,55.664,16.113
1620953430.922,40.527,40.527,44.922,62.012,12.207
1620953430.926,41.016,43.457,42.969,45.410,53.711
1620953430.930,23.438,38.086,49.805,37.109,60.547
1620953430.934,26.367,34.180,55.664,50.781,55.176
1620953430.938,36.621,32.715,47.363,48.828,27.344
1620953430.941,32.715,29.785,39.062,30.273,-20.996
1620953430.945,46.387,39.551,41.992,36.133,-25.879
1620953430.949,41.016,38.086,47.363,39.551,-8.301
1620953430.953,29.297,36.133,42.969,39.062,-28.809
1620953430.957,43.457,45.898,43.945,43.945,-21.973
1620953430.969,29.785,45.410,45.410,27.832,0.000
1620953430.973,21.973,41.504,53.223,21.484,18.066
1620953430.977,35.156,40.527,56.641,30.762,26.367
1620953430.981,31.250,44.922,49.805,26.855,28.809
1620953430.985,23.438,44.434,40.527,14.160,-0.488
1620953430.989,16.113,44.434,37.109,10.742,-2.441
1620953430.993,27.344,54.199,40.527,21.484,45.410
1620953430.996,45.410,51.758,41.016,35.156,39.551
1620953431.000,33.203,46.387,42.969,40.527,19.043
1620953431.004,24.902,50.293,38.574,47.852,-14.648
1620953431.008,27.344,50.781,34.668,46.387,28.809
1620953431.012,26.367,44.922,43.457,45.898,29.785
1620953431.007,27.344,44.434,43.457,41.992,-41.504
1620953431.011,24.902,41.504,40.527,31.250,-29.297
1620953431.015,43.945,47.363,47.852,48.828,17.090
1620953431.019,55.176,51.270,52.734,55.176,56.641
1620953431.023,42.969,46.875,51.758,42.969,83.496
1620953431.027,34.180,49.316,52.246,44.434,54.688
1620953431.031,21.973,45.410,57.617,43.457,-4.883
1620953431.034,17.578,41.992,53.711,39.062,23.438
1620953431.038,32.715,46.875,47.852,37.109,33.691
1620953431.042,37.598,48.340,46.875,23.926,12.207
1620953431.046,32.715,48.828,45.898,12.695,-29.785
1620953431.050,34.180,47.852,47.852,21.484,-11.719
1620953431.063,57.129,44.922,51.758,46.387,21.973
1620953431.067,53.711,44.922,55.664,43.457,5.859
1620953431.071,5.859,45.410,55.664,17.578,20.020
1620953431.075,-1.465,53.223,45.898,23.438,70.801
1620953431.079,11.230,57.129,34.668,20.996,50.293
1620953431.083,-4.883,58.105,45.410,3.906,22.461
1620953431.087,-20.020,47.852,53.711,-13.672,64.941
1620953431.090,-14.648,31.250,47.852,-16.113,71.289
1620953431.094,5.371,35.645,50.781,0.488,45.898
1620953431.098,10.254,50.781,53.711,-10.254,-13.672
1620953431.102,-10.742,49.805,48.828,-28.809,-14.160
1620953431.106,-24.902,47.852,48.340,-25.391,19.043
1620953431.100,-14.160,59.570,39.551,-3.418,-4.395
1620953431.104,0.977,60.547,39.551,14.160,21.484
1620953431.108,0.000,53.223,52.246,12.207,63.477
1620953431.112,0.000,50.781,51.270,13.184,65.918
1620953431.116,17.090,58.594,50.293,23.438,54.199
1620953431.120,23.926,55.664,56.152,23.438,0.977
1620953431.124,11.230,47.363,50.293,9.277,19.043
1620953431.127,0.000,44.434,44.434,-5.859,47.852
1620953431.131,4.883,51.758,42.480,-3.418,27.832
1620953431.135,21.484,58.105,44.922,1.953,25.391
1620953431.139,27.344,60.059,46.875,-2.930,20.996
1620953431.143,14.160,63.477,36.133,-10.742,-9.766
1620953431.157,1.953,61.523,29.297,-10.254,32.227
1620953431.161,7.812,57.129,36.621,4.395,75.684
1620953431.165,25.879,55.664,37.598,11.719,38.086
1620953431.169,19.043,55.176,34.180,1.465,62.988
1620953431.173,-12.207,50.781,44.922,1.465,41.504
1620953431.177,-36.133,47.363,52.734,18.066,28.320
1620953431.181,-38.574,42.480,49.805,17.578,22.461
1620953431.184,-36.621,40.527,53.223,0.000,-49.316
1620953431.188,-34.668,42.480,53.223,-13.184,-12.695
1620953431.192,-26.367,44.922,45.898,-15.625,-35.156
1620953431.196,-27.832,49.316,31.250,-22.949,-8.301
1620953431.200,-27.832,50.293,30.762,-27.344,7.324
1620953431.195,-21.484,43.457,36.621,-31.738,-29.785
1620953431.199,-11.230,41.504,41.016,-24.414,17.578
1620953431.203,3.906,45.898,45.410,-6.348,55.664
1620953431.207,5.859,49.805,39.551,-3.418,13.672
1620953431.211,-2.930,44.922,41.016,-14.648,-19.043
1620953431.215,-1.465,40.527,49.316,-11.719,-1.953
1620953431.219,-0.977,57.617,45.410,-1.465,2.930
1620953431.222,6.836,51.758,40.527,10.254,-35.156
1620953431.226,20.996,42.480,45.410,19.043,-54.199
1620953431.230,0.000,39.551,34.180,-1.465,61.523
1620953431.234,-3.418,43.457,30.762,-1.953,42.969
1620953431.238,12.695,58.105,41.504,17.090,-15.625
1620953431.250,19.043,50.781,48.340,23.926,9.766
1620953431.254,10.742,43.945,43.457,17.578,8.301
1620953431.258,9.766,44.922,37.109,12.695,19.531
1620953431.262,14.160,46.875,36.133,16.602,41.504
1620953431.266,9.766,43.945,34.180,10.742,64.453
1620953431.270,11.230,40.039,39.062,10.254,32.715
1620953431.274,8.789,47.852,41.016,19.531,-4.395
1620953431.277,8.301,47.852,40.039,23.926,64.941
1620953431.281,3.418,39.062,40.039,14.648,62.500
1620953431.285,7.324,35.645,40.039,14.160,-2.930
1620953431.289,13.672,30.762,39.551,23.438,43.945
1620953431.293,14.648,32.715,34.180,25.391,53.711
1620953431.288,18.555,43.457,32.715,26.367,21.484
1620953431.292,17.578,37.598,29.297,16.113,-6.348
1620953431.296,27.344,31.738,29.297,8.301,-39.551
1620953431.300,16.602,35.645,26.367,1.953,9.766
1620953431.304,-7.812,35.645,27.344,2.441,72.266
1620953431.308,-14.648,34.668,30.762,-6.348,72.754
1620953431.312,-13.184,32.227,28.320,-21.973,34.180
1620953431.315,-0.488,31.738,32.227,-10.254,-14.160
1620953431.319,6.836,33.691,33.691,8.789,-6.348
1620953431.323,3.418,33.203,40.039,20.020,8.789
1620953431.327,-11.230,28.320,36.133,8.789,7.812
1620953431.331,-7.324,29.785,28.809,15.137,83.008
1620953431.344,12.695,29.297,30.762,26.855,88.379
1620953431.348,24.414,28.320,27.832,29.785,33.691
1620953431.352,27.344,31.738,27.344,37.598,62.500
1620953431.356,28.320,29.785,26.855,40.527,62.500
1620953431.360,35.645,28.809,28.809,47.363,0.488
1620953431.364,45.410,33.691,33.691,51.270,-9.277
1620953431.368,36.133,34.668,34.180,45.898,48.828
1620953431.371,27.832,32.715,28.809,37.109,13.184
1620953431.375,32.715,30.762,28.320,33.203,16.602
1620953431.379,35.156,26.367,27.832,40.039,27.344
1620953431.383,32.227,34.180,24.902,36.621,54.688
1620953431.387,24.902,36.133,31.250,29.297,94.238
1620953431.382,27.832,37.598,33.203,31.250,73.242
1620953431.386,25.391,43.457,35.156,26.367,62.500
1620953431.390,16.113,42.480,39.551,22.949,-26.855
1620953431.394,4.395,36.133,31.738,8.301,-41.504
1620953431.398,3.906,30.273,29.297,-0.488,21.484
1620953431.402,22.949,33.691,38.574,21.973,14.160
1620953431.406,27.344,34.668,31.738,23.438,22.461
1620953431.409,27.344,32.227,31.738,19.043,25.879
1620953431.413,27.832,34.180,35.156,13.672,35.645
1620953431.417,24.902,33.691,24.902,6.836,25.879
1620953431.421,32.715,37.109,25.391,22.949,7.812
1620953431.425,34.668,38.086,31.738,29.785,11.230
1620953431.438,33.203,34.668,30.273,22.949,1.465
1620953431.442,24.902,32.227,25.879,27.344,24.902
1620953431.446,22.949,34.668,37.598,54.688,-2.930
1620953431.450,19.043,30.762,38.086,52.246,-12.207
1620953431.454,21.484,29.785,38.086,47.363,26.855
1620953431.458,40.039,42.969,45.898,66.895,-8.789
1620953431.462,47.363,43.457,43.945,55.664,14.648
1620953431.465,38.574,32.715,44.922,44.922,37.109
1620953431.469,23.926,25.879,34.180,37.598,-16.113
1620953431.473,27.832,27.344,25.391,25.879,-34.180
1620953431.477,41.504,41.992,25.391,33.691,-2.930
1620953431.481,30.273,38.086,22.949,34.668,-12.695
1620953431.477,18.066,28.320,25.391,26.367,-19.531
1620953431.481,15.137,28.809,26.367,19.043,34.180
1620953431.485,17.090,21.973,24.902,16.602,20.508
1620953431.489,24.902,25.879,26.367,22.949,-21.973
1620953431.493,19.531,30.273,34.180,25.391,0.977
1620953431.497,14.160,28.809,38.086,16.602,57.617
1620953431.501,17.578,28.320,32.715,12.695,63.477
1620953431.504,17.578,25.391,29.785,20.020,63.965
1620953431.508,22.461,27.832,35.156,21.973,72.754
1620953431.512,19.531,31.250,32.715,15.625,71.289
1620953431.516,8.301,26.855,25.879,18.066,68.848
1620953431.520,20.020,23.926,29.297,30.762,48.828
1620953431.532,29.785,26.367,38.086,42.969,22.949
1620953431.536,19.043,26.855,43.457,32.227,0.000
1620953431.540,20.508,27.344,41.016,22.461,1.465
1620953431.544,30.762,26.855,39.551,30.273,-13.672
1620953431.548,33.203,30.762,40.527,31.250,-26.367
1620953431.552,25.391,31.738,38.574,20.996,7.812
1620953431.556,16.113,25.879,31.738,7.812,-5.371
1620953431.559,20.020,33.691,29.785,19.531,6.836
1620953431.563,27.832,37.598,33.691,36.621,11.719
1620953431.567,35.645,36.621,34.180,37.109,-15.137
1620953431.571,41.504,44.922,32.715,35.645,10.742
1620953431.575,31.738,35.156,29.297,32.715,39.062
1620953431.569,20.020,30.762,17.090,25.879,0.000
1620953431.573,31.738,40.039,20.020,22.461,1.465
1620953431.577,31.250,38.086,35.156,30.762,117.676
1620953431.581,5.371,34.180,33.203,31.738,83.008
1620953431.585,1.465,36.133,31.250,34.668,-4.395
1620953431.589,18.555,35.645,32.715,39.551,-4.883
1620953431.593,29.297,41.016,34.180,29.785,-10.742
1620953431.596,24.414,45.410,34.180,20.508,53.711
1620953431.600,20.996,41.504,41.016,31.250,29.785
1620953431.604,20.508,44.434,49.805,25.879,-27.344
1620953431.608,31.250,40.039,51.758,12.695,56.641
1620953431.612,20.996,38.574,45.410,5.371,97.656
1620953431.625,26.855,40.039,46.387,4.395,47.363
1620953431.629,47.363,38.086,48.828,17.578,29.297
1620953431.633,17.578,37.598,41.016,19.531,38.086
1620953431.637,6.348,30.762,41.992,18.066,53.223
1620953431.641,11.230,34.668,38.086,19.531,-4.395
1620953431.645,21.973,41.504,36.621,32.227,-30.762
1620953431.649,32.715,38.574,46.387,41.504,-20.508
1620953431.652,34.180,36.133,47.852,34.668,-1.465
1620953431.656,34.180,34.180,45.410,34.180,26.367
1620953431.660,37.598,30.762,42.969,41.504,39.551
1620953431.664,37.109,36.621,47.852,52.734,36.621
1620953431.668,28.809,42.969,54.199,51.758,35.645
1620953431.663,21.484,35.645,53.223,34.668,67.871
1620953431.667,19.043,26.855,47.363,34.180,47.852
1620953431.671,26.855,24.414,40.527,41.016,-10.742
1620953431.675,20.996,26.855,39.551,29.785,-12.695
1620953431.679,11.719,31.738,41.016,22.461,30.762
1620953431.683,15.625,36.133,45.410,25.879,32.227
1620953431.687,27.832,35.156,51.270,30.273,30.762
1620953431.690,45.410,39.551,49.316,37.109,22.461
1620953431.694,41.016,43.457,53.223,26.367,-16.113
1620953431.698,26.855,39.062,59.082,19.531,30.273
1620953431.702,18.066,37.109,45.410,18.555,71.777
1620953431.706,11.719,39.551,34.668,16.113,43.945
1620953431.719,6.836,36.133,37.598,11.230,22.461
1620953431.723,6.836,41.504,36.133,5.859,56.641
1620953431.727,18.555,43.457,38.574,14.160,20.020
1620953431.731,23.926,46.387,36.133,8.789,8.789
1620953431.735,29.297,42.480,34.180,4.395,0.488
1620953431.739,33.691,33.203,36.621,13.672,-41.504
1620953431.743,38.574,37.598,40.039,20.020,-20.508
1620953431.746,30.762,41.992,42.969,15.625,41.016
1620953431.750,24.414,42.480,38.574,13.184,4.395
1620953431.754,20.508,40.039,37.598,15.625,23.438
1620953431.758,8.301,39.551,37.109,16.602,110.840
1620953431.762,24.414,40.527,38.086,28.320,122.070
1620953431.758,34.668,40.039,42.480,39.062,33.203
1620953431.762,26.855,37.598,42.969,39.062,-27.832
1620953431.766,10.742,33.691,40.527,31.738,65.918
1620953431.770,15.137,36.621,42.480,41.504,68.848
1620953431.774,27.832,38.086,47.363,49.805,32.715
1620953431.778,16.113,34.668,50.293,27.832,19.531
1620953431.782,19.531,36.133,45.898,19.043,-15.625
1620953431.785,29.297,44.922,42.969,37.109,-16.113
1620953431.789,29.297,38.574,42.480,43.945,58.105
1620953431.793,34.668,39.062,38.574,36.621,48.340
1620953431.797,30.762,42.480,42.480,30.273,33.691
1620953431.801,38.086,41.504,50.293,42.480,47.852
1620953431.813,43.945,40.039,46.387,44.922,45.898
1620953431.817,26.367,33.203,40.039,24.902,8.789
1620953431.821,14.160,31.738,38.574,11.719,-25.391
1620953431.825,24.902,37.598,42.480,27.344,24.902
1620953431.829,33.203,36.133,43.945,37.598,-36.133
1620953431.833,31.250,36.133,38.574,24.414,-79.102
1620953431.837,27.832,37.598,37.598,13.184,-16.602
1620953431.840,20.508,35.645,41.016,15.137,30.762
1620953431.844,26.367,37.109,42.480,17.090,34.180
1620953431.848,27.344,43.457,40.039,12.695,17.578
1620953431.852,18.066,35.156,39.551,6.348,-34.180
1620953431.856,22.949,38.086,40.527,7.324,3.418
1620953431.852,27.832,44.922,40.039,13.672,74.219
1620953431.856,20.508,32.715,39.062,20.508,56.152
1620953431.860,13.672,28.320,36.621,16.113,33.691
1620953431.864,8.789,30.273,35.645,6.348,2.441
1620953431.868,21.973,26.855,39.062,20.508,-5.371
1620953431.872,37.109,27.832,34.180,33.203,10.742
1620953431.876,36.621,35.156,30.273,29.297,-5.859
1620953431.879,36.133,28.320,43.945,29.785,-17.578
1620953431.883,23.438,26.367,43.945,33.203,79.590
1620953431.887,23.926,32.715,40.039,42.969,73.730
1620953431.891,40.527,39.551,45.410,55.176,46.875
1620953431.895,35.645,40.039,48.828,51.270,5.371
1620953431.907,-0.488,30.762,40.527,33.203,2.930
1620953431.911,7.324,32.715,38.086,41.504,44.434
1620953431.915,27.832,35.645,45.898,46.875,-14.160
1620953431.919,24.414,31.250,43.457,32.227,-35.645
1620953431.923,22.949,28.320,42.969,33.203,-7.324
1620953431.927,9.766,27.344,41.992,28.320,11.230
1620953431.931,14.648,38.086,43.457,24.414,14.160
1620953431.934,26.855,36.621,54.688,31.250,41.992
1620953431.938,9.766,25.391,47.363,11.230,19.531
1620953431.942,10.254,33.691,41.016,11.719,-40.039
1620953431.946,19.531,37.598,43.457,23.438,56.152
1620953431.950,0.000,31.738,43.945,5.371,66.895
1620953431.946,-17.090,27.344,42.480,-16.113,52.734
1620953431.950,-17.090,23.438,43.457,-19.531,60.547
1620953431.954,7.324,31.250,52.734,2.930,7.812
1620953431.958,16.113,33.203,54.688,19.043,0.977
1620953431.962,3.906,27.344,51.758,1.953,6.348
1620953431.966,-6.348,30.273,50.293,-10.742,-16.602
1620953431.970,-6.836,40.039,51.270,5.371,-20.996
1620953431.973,10.254,42.480,48.828,25.879,18.555
1620953431.977,20.508,35.156,50.293,25.879,46.387
1620953431.981,6.836,38.086,49.805,14.648,15.137
1620953431.985,-2.441,30.762,40.039,17.090,21.484
1620953431.989,8.301,27.832,39.551,23.926,10.254
1620953432.000,13.672,36.133,41.016,22.949,8.789
1620953432.004,14.160,34.668,38.574,19.531,23.926
1620953432.008,26.367,30.762,45.410,34.668,-15.137
1620953432.012,36.133,33.691,46.387,41.016,-8.301
1620953432.016,33.691,38.574,47.363,31.738,13.672
1620953432.020,18.555,43.945,45.898,23.438,86.914
1620953432.024,13.672,36.621,36.621,20.508,109.863
1620953432.027,25.391,23.926,36.133,34.180,56.641
1620953432.031,23.926,24.414,33.203,36.621,14.648
1620953432.035,20.508,27.832,32.715,31.250,11.719
1620953432.039,27.344,42.969,30.762,30.273,45.410
1620953432.043,24.414,45.410,25.391,29.297,24.902
1620953432.039,20.020,33.691,24.902,21.973,67.871
1620953432.043,20.996,37.598,32.715,8.789,68.359
1620953432.047,18.555,39.062,34.180,2.930,3.418
1620953432.051,27.344,31.738,33.203,11.230,73.242
1620953432.055,37.109,35.645,34.668,13.184,90.820
1620953432.059,35.156,39.062,36.621,0.977,16.113
1620953432.063,4.883,29.297,34.668,-14.160,0.488
1620953432.066,-6.348,33.203,37.598,-2.441,-13.184
1620953432.070,-3.418,30.273,38.574,15.137,-39.551
1620953432.074,-4.883,26.855,34.668,19.531,29.785
1620953432.078,0.000,32.715,33.691,20.996,64.941
1620953432.082,3.906,28.809,37.109,22.461,15.625
1620953432.094,14.648,27.832,32.715,24.414,18.555
1620953432.098,17.090,33.203,26.367,29.785,26.367
1620953432.102,15.625,36.133,25.879,28.809,-63.477
1620953432.106,17.578,38.574,27.832,19.531,-21.484
1620953432.110,27.832,37.598,28.809,27.832,16.113
1620953432.114,36.621,29.297,28.320,33.691,-29.785
1620953432.118,24.902,20.996,22.461,20.508,1.465
1620953432.121,20.020,32.715,20.020,15.137,26.367
1620953432.125,38.086,46.875,30.273,31.738,30.762
1620953432.129,46.387,43.945,27.344,37.109,30.762
1620953432.133,38.086,35.645,16.113,22.461,41.504
1620953432.137,29.785,36.133,20.508,19.043,48.828
1620953432.132,33.203,39.551,26.367,26.855,55.664
1620953432.136,24.414,30.762,23.438,26.367,31.738
1620953432.140,19.043,33.691,26.855,29.785,-15.137
1620953432.144,15.625,38.574,27.344,19.531,3.906
1620953432.148,12.207,38.574,27.832,10.254,-6.836
1620953432.152,18.555,39.551,32.227,13.672,-31.250
1620953432.156,16.602,39.551,29.297,9.277,-34.180
1620953432.159,9.277,36.133,29.785,0.000,5.371
1620953432.163,10.254,32.715,37.109,-0.488,50.781
1620953432.167,6.836,29.785,37.109,9.766,38.574
1620953432.171,6.348,27.832,32.227,14.648,70.801
1620953432.175,32.715,32.715,39.551,26.855,53.223
1620953432.188,31.738,35.156,39.551,20.996,11.230
1620953432.192,18.555,32.715,39.551,26.367,-20.020
1620953432.196,35.645,32.227,48.828,46.387,-3.418
1620953432.200,34.668,32.715,46.387,32.715,5.371
1620953432.204,24.902,30.273,37.598,27.344,-32.227
1620953432.208,33.691,27.344,34.180,34.668,-30.273
1620953432.212,41.992,28.809,35.156,35.156,-35.156
1620953432.215,44.434,29.785,38.086,35.156,-7.324
1620953432.219,24.902,29.297,37.598,30.273,42.969
1620953432.223,15.625,32.715,36.621,32.715,41.992
1620953432.227,21.973,28.320,39.551,43.457,32.715
1620953432.231,18.555,38.574,39.551,46.387,83.984
1620953432.226,23.438,43.457,42.480,40.039,63.965
1620953432.230,23.926,31.738,40.039,30.762,0.977
1620953432.234,27.344,30.273,34.668,23.926,-8.301
1620953432.238,22.461,36.133,33.203,29.785,-7.812
1620953432.242,17.090,41.016,26.855,25.391,4.395
1620953432.246,21.484,37.598,28.809,19.531,-0.488
1620953432.250,20.996,36.621,32.227,26.855,-1.465
1620953432.253,17.090,33.691,29.785,31.250,22.461
1620953432.257,22.949,32.227,30.273,28.320,-32.227
1620953432.261,19.043,34.180,36.133,12.207,-17.578
1620953432.265,13.184,33.691,33.691,9.277,72.754
1620953432.269,26.855,32.227,25.879,23.438,27.832
1620953432.282,30.273,27.832,30.762,19.531,8.301
1620953432.286,20.508,35.156,38.086,8.789,36.621
1620953432.290,10.742,38.086,31.738,6.836,56.152
1620953432.294,16.113,28.320,26.855,19.531,33.203
1620953432.298,23.438,25.879,29.785,27.832,17.578
1620953432.302,25.391,27.344,32.715,22.949,43.457
1620953432.306,26.855,28.809,28.320,22.949,51.270
1620953432.309,25.879,29.297,29.785,30.273,12.207
1620953432.313,33.203,32.227,38.574,42.480,14.160
1620953432.317,44.922,31.250,41.992,44.434,37.109
1620953432.321,45.898,27.832,42.969,37.109,73.730
1620953432.325,34.180,28.320,40.527,37.598,41.992
1620953432.320,27.344,29.297,40.527,41.016,19.531
1620953432.324,19.531,29.785,38.574,41.992,9.766
1620953432.328,18.555,28.320,32.715,41.016,-12.207
1620953432.332,23.926,30.762,32.715,38.086,-5.371
1620953432.336,42.480,36.133,41.992,39.062,1.465
