timestamps,TP9,AF7,AF8,TP10,Right AUX
1620953926.008,24.902,28.809,34.668,41.992,53.711
1620953926.012,19.043,25.391,35.645,35.156,4.883
1620953926.016,21.484,25.879,41.016,38.574,-10.742
1620953926.020,25.391,26.367,44.434,50.293,-2.930
1620953926.024,22.949,22.949,30.762,37.598,8.301
1620953926.028,16.113,22.949,33.203,23.438,2.441
1620953926.032,12.207,24.902,40.039,25.879,-41.992
1620953926.035,13.672,25.879,33.691,21.973,2.930
1620953926.039,18.066,27.344,33.203,24.902,40.039
1620953926.043,23.926,30.762,28.809,22.949,12.207
1620953926.047,15.137,34.668,24.902,16.602,21.484
1620953926.051,15.137,35.156,30.762,28.320,20.020
1620953926.054,13.672,22.949,33.203,13.672,79.102
1620953926.058,30.762,26.367,23.438,20.996,63.477
1620953926.062,50.781,30.762,22.461,41.016,74.219
1620953926.066,27.344,25.391,32.715,24.414,57.617
1620953926.070,-1.465,26.367,35.156,-4.395,49.316
1620953926.073,8.301,29.297,34.668,12.695,27.344
1620953926.077,14.648,21.973,29.297,32.715,-18.066
1620953926.081,10.254,13.184,30.273,29.785,-5.859
1620953926.085,8.789,14.160,40.039,22.461,48.340
1620953926.089,13.672,22.949,37.109,22.949,77.637
1620953926.102,19.043,25.879,36.621,27.832,75.684
1620953926.106,31.250,28.320,34.668,28.809,9.277
1620953926.110,32.227,26.855,29.785,18.555,-47.852
1620953926.114,11.230,22.461,32.715,15.137,-2.930
1620953926.118,7.324,22.949,33.691,28.809,-3.906
1620953926.122,9.277,26.367,34.180,38.574,18.066
1620953926.126,6.348,22.461,33.691,32.227,12.695
1620953926.129,6.836,23.926,31.738,21.484,-9.766
1620953926.133,1.465,28.320,32.715,29.785,51.758
1620953926.137,4.883,25.391,34.180,35.645,84.961
1620953926.141,10.254,22.949,38.086,35.156,37.109
1620953926.145,17.578,27.344,33.203,41.016,7.324
1620953926.140,21.973,31.738,30.273,38.574,39.551
1620953926.144,14.160,32.227,40.527,33.203,66.895
1620953926.148,16.113,34.668,42.480,33.691,20.020
1620953926.152,12.207,35.645,33.691,27.344,15.625
1620953926.156,16.113,33.691,34.668,23.926,28.320
1620953926.160,24.902,26.855,38.574,26.367,14.160
1620953926.164,16.602,25.879,30.273,28.320,30.273
1620953926.167,16.602,31.250,32.227,24.414,51.758
1620953926.171,20.020,31.738,30.762,16.113,28.320
1620953926.175,29.297,29.297,30.762,23.926,-27.832
1620953926.179,35.156,29.785,33.691,32.227,42.969
1620953926.183,27.832,30.273,27.344,22.949,73.730
1620953926.178,29.785,29.785,29.785,22.461,-0.977
1620953926.182,28.320,34.668,31.738,20.508,-13.184
1620953926.186,27.344,36.621,26.367,26.855,32.715
1620953926.190,31.250,31.250,26.367,31.738,48.340
1620953926.194,27.832,25.391,27.344,13.672,46.387
1620953926.198,37.109,27.344,28.809,14.648,19.531
1620953926.202,41.504,35.156,39.062,31.250,17.090
1620953926.205,29.785,31.738,42.969,38.086,19.531
1620953926.209,16.602,29.297,36.621,35.156,15.137
1620953926.213,5.859,33.203,29.785,24.414,26.367
1620953926.217,18.555,33.691,24.414,26.855,30.762
1620953926.221,16.602,34.180,21.484,32.715,-12.207
1620953926.235,-6.348,34.180,20.996,24.902,-12.695
1620953926.239,1.465,24.414,26.855,20.020,33.691
1620953926.243,18.066,26.855,33.203,23.926,1.953
1620953926.247,20.996,29.785,29.785,31.738,-41.016
1620953926.251,20.996,24.902,30.273,29.785,-31.250
1620953926.255,15.625,27.832,32.715,23.438,6.348
1620953926.259,22.461,24.414,31.250,27.344,42.969
1620953926.262,38.574,23.926,29.297,33.691,0.488
1620953926.266,30.762,26.367,29.785,32.227,32.715
1620953926.270,20.508,26.855,30.762,33.203,97.168
1620953926.274,18.066,24.902,29.785,28.320,129.395
1620953926.278,22.949,22.461,27.344,21.484,52.734
1620953926.290,17.090,27.344,22.949,19.043,-5.859
1620953926.294,13.184,21.973,27.344,15.137,17.090
1620953926.298,17.090,20.508,32.715,12.695,-23.438
1620953926.302,34.180,25.879,28.809,27.344,34.180
1620953926.306,49.316,30.762,32.715,46.875,28.809
1620953926.310,17.090,33.691,36.621,22.461,-20.508
1620953926.314,0.000,26.855,35.645,-1.953,6.836
1620953926.317,13.672,23.926,40.527,16.113,34.180
1620953926.321,25.879,22.949,41.016,33.203,24.902
1620953926.325,33.691,15.625,42.969,27.832,53.711
1620953926.329,20.020,25.391,39.551,16.602,52.734
1620953926.333,5.859,31.738,35.645,16.602,-24.414
1620953926.328,1.465,20.020,39.551,32.715,22.461
1620953926.332,15.137,25.391,35.645,40.039,111.816
1620953926.336,20.996,31.250,32.227,22.461,45.898
1620953926.340,29.297,35.156,34.180,22.461,35.645
1620953926.344,44.434,37.109,35.156,36.133,29.785
1620953926.348,38.086,33.691,31.250,32.715,14.648
1620953926.352,20.996,34.668,28.320,29.785,38.574
1620953926.355,12.695,30.273,31.738,31.738,65.430
1620953926.359,18.555,29.297,32.715,32.715,73.730
1620953926.363,27.344,32.227,37.598,30.273,48.828
1620953926.367,26.367,31.250,33.203,27.344,5.859
1620953926.371,13.672,31.738,26.367,22.461,-8.789
1620953926.383,16.113,21.484,31.738,28.809,3.906
1620953926.387,25.879,20.508,27.832,39.551,46.875
1620953926.391,19.531,28.320,22.949,27.344,87.891
1620953926.395,23.926,28.320,27.832,22.949,36.133
1620953926.399,23.926,30.273,30.762,28.809,-4.395
1620953926.403,26.367,31.250,29.785,29.297,30.762
1620953926.407,29.297,29.297,27.344,24.414,82.520
1620953926.410,24.414,33.691,25.879,16.602,21.484
1620953926.414,26.855,40.039,29.297,19.531,52.734
1620953926.418,41.504,28.320,37.109,43.457,12.207
1620953926.422,69.824,31.738,34.668,70.801,-31.250
1620953926.426,68.359,43.457,28.320,52.246,29.297
1620953926.421,38.574,45.410,26.855,18.555,51.270
1620953926.425,38.086,48.828,24.414,13.184,47.363
1620953926.429,50.781,49.316,20.996,26.367,16.602
1620953926.433,53.223,49.316,17.578,28.809,27.344
1620953926.437,41.992,58.105,13.672,20.508,13.672
1620953926.441,37.109,66.406,9.766,20.996,-41.992
1620953926.445,38.574,58.105,4.395,24.902,-4.883
1620953926.448,39.062,54.688,-2.930,21.973,56.641
1620953926.452,42.480,59.082,-1.465,9.277,36.133
1620953926.456,31.250,57.617,-1.465,1.953,15.137
1620953926.460,20.508,58.594,-6.348,5.859,48.828
1620953926.464,18.555,59.570,-4.883,7.324,101.074
1620953926.459,14.648,60.547,-11.719,7.812,23.926
1620953926.463,22.949,56.641,-5.859,17.578,-24.902
1620953926.467,33.691,52.734,9.766,26.855,25.391
1620953926.471,28.320,52.734,11.230,27.832,34.180
1620953926.475,27.832,52.246,14.648,23.438,73.242
1620953926.479,30.762,56.641,17.090,23.926,45.410
1620953926.483,37.109,54.688,12.207,29.297,-33.203
1620953926.486,42.480,51.758,13.672,34.180,-0.488
1620953926.490,48.828,56.152,15.625,37.109,54.199
1620953926.494,54.199,53.223,10.254,29.297,44.434
1620953926.498,51.270,47.363,5.859,32.227,23.926
1620953926.502,47.852,46.875,12.207,41.504,48.828
1620953926.553,47.363,47.852,21.973,29.297,41.992
1620953926.557,48.340,50.781,23.926,23.926,10.254
1620953926.561,43.457,49.316,26.367,30.762,70.801
1620953926.565,38.574,41.504,23.926,30.762,93.262
1620953926.569,48.340,40.039,21.484,35.156,23.438
1620953926.573,53.223,44.922,23.438,31.738,-14.160
1620953926.577,42.969,46.875,25.391,29.785,23.438
1620953926.580,45.898,44.434,26.855,36.133,9.766
1620953926.584,52.734,46.875,26.855,42.969,9.277
1620953926.588,58.594,46.387,29.785,39.551,31.738
1620953926.592,54.199,41.504,28.809,28.809,32.715
1620953926.596,53.223,41.992,25.391,35.645,6.836
1620953926.572,48.340,43.945,32.715,47.852,-1.465
1620953926.576,23.438,41.504,32.715,38.574,-0.977
1620953926.580,12.695,41.992,30.273,33.691,-15.137
1620953926.584,14.648,41.992,33.203,36.133,-20.996
1620953926.588,12.695,35.645,34.668,31.250,-23.926
1620953926.592,13.672,27.344,29.785,26.855,11.230
1620953926.596,14.648,35.156,27.344,16.602,60.547
1620953926.599,16.113,38.574,27.832,10.742,66.406
1620953926.603,25.391,38.574,30.273,20.996,24.414
1620953926.607,31.738,34.668,33.203,24.902,50.293
1620953926.611,23.926,30.762,27.344,18.066,48.340
1620953926.615,30.762,37.109,26.855,17.578,31.738
1620953926.609,38.086,35.156,29.297,28.320,72.266
1620953926.613,35.645,35.645,24.414,30.273,67.871
1620953926.617,34.180,40.039,30.762,26.855,55.664
1620953926.621,27.832,36.133,37.109,23.438,19.531
1620953926.625,25.879,28.809,35.645,18.555,31.738
1620953926.629,27.344,29.297,35.645,25.879,14.160
1620953926.633,13.184,28.809,34.668,19.531,-49.805
1620953926.636,4.883,27.832,30.273,14.160,-17.578
1620953926.640,4.883,28.809,32.227,27.832,47.852
1620953926.644,9.766,32.227,41.504,41.016,65.918
1620953926.648,10.742,31.250,41.016,29.297,65.918
1620953926.652,0.000,36.621,36.133,2.930,41.504
1620953926.665,14.160,41.992,33.203,9.766,-4.395
1620953926.669,23.438,34.668,30.273,27.832,41.504
1620953926.673,21.973,34.180,26.367,29.785,41.016
1620953926.677,31.250,36.621,28.320,20.996,-12.695
1620953926.681,34.180,32.227,30.762,14.160,-11.230
1620953926.685,43.457,30.762,26.855,27.832,37.109
1620953926.689,41.992,27.832,23.926,23.926,92.285
1620953926.692,36.621,28.320,29.785,16.602,19.531
1620953926.696,38.574,36.621,32.227,15.625,-10.742
1620953926.700,44.922,33.203,29.297,20.020,73.730
1620953926.704,49.805,30.273,26.855,29.785,41.016
1620953926.708,42.480,31.250,27.344,33.203,8.301
1620953926.702,27.344,38.574,26.855,32.715,65.918
1620953926.706,20.996,34.668,25.391,33.203,92.285
1620953926.710,24.414,27.832,27.344,33.691,33.203
1620953926.714,26.367,36.133,22.949,31.250,-34.668
1620953926.718,25.391,32.715,22.461,26.367,-10.254
1620953926.722,24.902,32.227,22.461,25.391,35.645
1620953926.726,21.973,37.109,25.879,30.273,125.977
1620953926.729,17.578,35.156,32.715,41.504,140.625
1620953926.733,13.184,28.320,30.762,34.180,95.215
1620953926.737,10.742,26.855,39.062,24.902,0.488
1620953926.741,16.602,28.809,42.480,38.574,-38.086
1620953926.745,21.484,25.879,36.621,49.805,69.824
1620953926.741,19.043,24.414,38.574,46.387,39.551
1620953926.745,10.742,25.391,36.133,36.621,10.742
1620953926.749,13.672,29.297,36.133,42.480,58.594
1620953926.753,13.184,31.250,34.668,43.457,67.383
1620953926.757,15.137,32.227,27.344,27.832,56.152
1620953926.761,20.508,34.668,33.691,19.531,62.500
1620953926.765,11.719,32.715,31.738,20.508,75.684
1620953926.768,19.043,30.273,19.043,18.555,-1.465
1620953926.772,27.344,32.227,25.391,16.113,40.527
1620953926.776,22.949,36.621,28.809,10.742,76.172
1620953926.780,28.320,36.621,21.484,8.301,82.031
1620953926.784,25.879,35.645,22.949,8.789,65.430
1620953926.797,22.461,39.551,27.344,16.113,18.066
1620953926.801,27.832,41.016,26.367,15.137,38.086
1620953926.805,19.531,39.062,27.832,16.113,42.480
1620953926.809,26.855,41.504,29.785,25.879,45.898
1620953926.813,45.898,42.480,34.668,32.227,-16.602
1620953926.817,37.109,35.645,36.621,36.133,-15.625
1620953926.821,31.738,29.297,33.203,28.809,9.277
1620953926.824,38.086,29.297,32.715,35.156,37.109
1620953926.828,43.457,26.367,30.273,41.992,54.688
1620953926.832,47.363,32.715,30.273,41.992,20.996
1620953926.836,41.016,34.668,31.250,36.621,24.902
1620953926.840,32.227,30.273,33.203,29.785,42.969
1620953926.833,32.715,31.738,36.621,44.922,34.180
1620953926.837,32.227,27.344,34.180,54.688,3.906
1620953926.841,24.902,27.832,33.203,50.781,-50.293
1620953926.845,26.367,26.855,39.062,44.434,-14.160
1620953926.849,26.855,24.414,43.457,42.480,4.395
1620953926.853,23.926,27.832,41.016,46.875,8.789
1620953926.857,13.672,23.438,42.480,29.785,45.410
1620953926.860,17.578,28.809,31.738,24.414,47.363
1620953926.864,37.598,32.715,25.391,46.387,1.953
1620953926.868,20.996,26.855,41.504,32.715,20.996
1620953926.872,2.930,31.738,46.875,16.602,51.270
1620953926.876,-0.977,28.320,43.457,15.625,12.695
1620953926.890,5.371,20.020,42.480,14.648,-53.711
1620953926.894,12.695,25.391,44.922,17.578,-33.203
1620953926.898,13.184,22.949,46.875,16.602,15.625
1620953926.902,14.648,21.484,45.410,8.789,-23.438
1620953926.906,22.461,32.227,43.457,10.742,4.395
1620953926.910,48.828,33.203,41.504,33.203,36.133
1620953926.914,47.852,33.691,42.480,48.828,93.750
1620953926.917,21.484,31.250,43.945,45.898,64.453
1620953926.921,10.254,22.949,39.551,33.203,3.418
1620953926.925,13.672,25.879,34.180,39.062,49.316
1620953926.929,18.066,29.785,34.668,40.527,2.441
1620953926.933,16.113,26.367,35.645,31.738,41.016
1620953926.946,16.602,25.879,38.086,36.133,-12.207
1620953926.950,17.578,29.297,39.062,35.645,-62.500
1620953926.954,28.320,30.762,37.109,40.527,-3.418
1620953926.958,41.016,36.133,34.668,42.969,-24.414
1620953926.962,44.434,31.738,38.086,35.645,43.457
1620953926.966,47.363,23.926,41.504,42.969,57.617
1620953926.970,49.316,28.320,40.527,50.781,-25.879
1620953926.973,36.621,29.297,43.457,46.387,-30.273
1620953926.977,33.203,27.832,41.016,36.133,-12.207
1620953926.981,30.762,27.344,35.156,30.273,-0.977
1620953926.985,21.973,21.973,33.691,39.062,22.949
1620953926.989,25.391,21.484,37.109,42.969,64.941
1620953926.983,22.461,21.973,38.086,26.855,93.750
1620953926.987,21.973,22.461,38.086,17.578,17.578
1620953926.991,26.855,24.902,39.062,24.414,8.301
1620953926.995,23.438,25.879,39.062,27.344,6.348
1620953926.999,22.461,24.414,39.062,24.414,-24.414
1620953927.003,24.414,23.438,42.480,20.996,4.883
1620953927.007,26.855,26.855,36.621,26.367,74.707
1620953927.010,33.691,32.715,26.855,30.273,44.922
1620953927.014,33.203,36.621,31.738,22.461,-30.762
1620953927.018,17.090,37.109,38.086,18.555,9.277
1620953927.022,3.906,30.273,34.668,18.066,30.273
1620953927.026,13.672,34.668,34.668,22.949,35.156
1620953927.022,25.391,40.527,35.645,29.297,8.789
1620953927.026,22.949,33.203,27.832,28.809,-0.977
1620953927.030,22.461,33.691,32.715,25.391,-14.648
1620953927.034,32.227,37.109,41.504,28.809,5.371
1620953927.038,41.992,37.598,40.039,34.180,50.781
1620953927.042,21.484,26.855,33.203,24.902,84.473
1620953927.046,4.395,21.973,33.203,15.137,79.102
1620953927.049,11.719,31.250,36.621,25.391,46.387
1620953927.053,15.137,34.180,36.133,32.715,82.520
1620953927.057,17.090,33.691,33.203,25.391,45.898
1620953927.061,13.184,29.297,32.227,18.066,7.812
1620953927.065,19.531,27.344,32.227,15.137,-8.789
1620953927.078,25.879,30.273,32.227,22.949,1.953
1620953927.082,31.738,29.785,34.668,20.996,72.754
1620953927.086,44.922,25.879,38.086,17.090,20.020
1620953927.090,38.086,28.809,35.156,29.785,-19.043
1620953927.094,50.293,36.621,32.715,50.293,-16.602
1620953927.098,52.734,33.203,39.551,55.176,-26.855
1620953927.102,15.625,23.926,44.922,24.902,26.367
1620953927.105,-4.883,26.855,35.156,14.648,53.223
1620953927.109,12.695,27.832,32.715,31.738,27.832
1620953927.113,23.438,26.367,42.969,18.555,-42.480
1620953927.117,19.531,26.855,42.480,5.859,-39.062
1620953927.121,14.648,24.902,41.992,6.348,43.945
1620953927.133,15.625,23.926,38.574,16.602,14.648
1620953927.137,29.785,25.391,38.086,40.527,3.906
1620953927.141,30.762,26.367,37.598,39.551,29.297
1620953927.145,18.066,24.414,34.180,23.438,-9.766
1620953927.149,15.625,28.320,35.645,26.855,62.988
1620953927.153,24.902,31.250,34.668,42.969,63.477
1620953927.157,24.902,30.762,31.250,39.551,14.160
1620953927.160,16.113,29.785,31.250,22.949,19.531
1620953927.164,18.066,26.855,29.785,23.438,3.906
1620953927.168,28.809,29.297,32.227,32.715,10.254
1620953927.172,29.785,35.645,35.645,31.738,-15.137
1620953927.176,19.531,26.367,32.227,29.785,-32.715
1620953927.171,22.949,24.414,30.273,30.762,48.340
1620953927.175,30.273,29.297,24.414,27.344,62.012
1620953927.179,33.691,18.066,27.832,27.344,93.750
1620953927.183,27.344,18.555,33.691,27.344,102.539
1620953927.187,17.578,25.391,29.297,25.391,33.203
1620953927.191,29.297,26.855,30.762,33.691,4.883
1620953927.195,34.180,25.879,28.320,39.062,13.184
1620953927.198,36.621,24.414,25.391,33.203,75.195
1620953927.202,34.180,29.785,29.297,28.809,15.137
1620953927.206,30.762,32.227,26.367,27.832,-26.367
1620953927.210,34.668,28.809,26.367,36.133,17.578
1620953927.214,29.785,28.809,29.297,34.180,67.383
1620953927.227,22.949,31.250,30.273,22.461,50.293
1620953927.231,23.438,35.156,24.902,24.414,29.297
1620953927.235,27.832,30.762,31.250,37.109,54.688
1620953927.239,25.391,27.344,37.109,39.062,-1.465
1620953927.243,28.809,29.297,33.691,33.691,10.742
1620953927.247,25.879,28.320,37.598,28.320,85.449
1620953927.251,19.531,26.855,34.180,25.879,100.586
1620953927.254,20.508,24.414,33.203,29.297,69.336
1620953927.258,16.113,25.879,36.133,27.832,16.602
1620953927.262,11.719,21.973,32.715,24.414,-7.812
1620953927.266,10.742,20.508,31.738,31.250,0.488
1620953927.270,13.672,28.809,33.203,42.969,5.859
1620953927.265,15.137,26.855,30.762,39.551,31.250
1620953927.269,12.695,28.320,31.738,26.855,0.488
1620953927.273,11.719,30.273,32.715,27.832,15.137
1620953927.277,8.301,27.344,34.668,36.621,38.086
1620953927.281,16.113,27.832,35.645,36.133,-13.184
1620953927.285,19.531,27.344,30.762,29.297,11.230
1620953927.289,7.812,25.391,29.785,20.020,67.871
1620953927.292,30.273,25.391,25.391,30.273,35.156
1620953927.296,61.035,25.879,24.414,56.152,56.641
1620953927.300,31.738,21.973,34.180,36.133,32.715
1620953927.304,7.812,25.391,35.645,10.254,19.043
1620953927.308,7.812,25.879,30.762,9.766,19.043
1620953927.303,7.812,20.508,29.297,16.602,-29.785
1620953927.307,9.766,20.508,29.297,20.508,21.484
1620953927.311,2.441,14.648,32.227,8.789,39.551
1620953927.315,-5.371,10.254,38.086,10.742,40.039
1620953927.319,7.324,15.137,41.016,26.855,31.250
1620953927.323,18.555,14.648,41.504,32.715,9.766
1620953927.327,5.859,15.625,42.969,21.484,41.016
1620953927.330,17.090,18.066,42.969,20.020,57.617
1620953927.334,22.949,15.625,43.945,30.273,50.293
1620953927.338,21.484,18.555,45.898,34.180,16.113
1620953927.342,27.344,21.484,43.457,32.227,20.508
1620953927.346,17.090,27.344,39.062,24.902,-6.836
1620953927.359,22.461,25.391,39.062,24.902,-35.156
1620953927.363,28.809,25.879,41.992,34.668,-9.766
1620953927.367,22.949,29.785,45.410,32.715,30.273
1620953927.371,14.160,26.855,39.551,27.344,11.230
1620953927.375,8.301,25.879,38.574,29.785,-16.602
1620953927.379,12.695,24.902,41.016,32.715,4.395
1620953927.383,14.160,25.879,39.062,26.367,29.297
1620953927.386,14.648,31.250,35.645,20.508,53.711
1620953927.390,24.414,34.180,30.273,24.414,37.598
1620953927.394,34.180,36.621,34.668,35.156,31.738
1620953927.398,37.598,33.691,39.551,39.062,36.133
1620953927.402,31.738,31.250,42.480,27.344,50.293
1620953927.396,31.250,32.227,43.945,29.785,41.992
1620953927.400,37.109,26.855,42.969,32.715,-34.180
1620953927.404,34.180,28.320,42.480,29.785,-38.574
1620953927.408,28.809,29.297,39.551,21.484,10.742
1620953927.412,32.715,29.297,35.645,19.531,64.453
1620953927.416,31.250,34.180,37.598,31.738,5.859
1620953927.420,26.367,33.203,36.133,38.086,-25.391
1620953927.423,31.250,33.691,29.785,44.922,2.441
1620953927.427,29.297,36.133,34.668,39.551,4.395
1620953927.431,14.648,34.668,40.527,29.785,97.656
1620953927.435,11.719,29.785,29.785,27.832,111.328
1620953927.439,20.020,26.855,26.367,23.438,21.484
1620953927.452,15.137,28.320,27.832,18.066,-28.809
1620953927.456,9.277,29.785,22.949,17.578,-30.273
1620953927.460,17.090,22.461,26.855,25.391,54.199
1620953927.464,20.996,24.414,26.855,26.367,46.387
1620953927.468,16.602,32.715,23.926,22.461,48.340
1620953927.472,13.672,30.273,30.273,27.344,34.668
1620953927.476,19.531,31.738,31.250,31.250,-2.930
1620953927.479,27.832,35.645,32.227,32.227,85.449
1620953927.483,23.926,28.809,30.273,22.461,90.820
1620953927.487,9.277,23.438,32.227,17.578,16.602
1620953927.491,14.160,29.297,33.691,27.344,28.809
1620953927.495,19.531,26.855,28.809,27.832,29.297
1620953927.490,17.090,20.508,20.996,23.926,9.277
1620953927.494,24.902,25.391,20.508,23.926,-8.301
1620953927.498,27.344,30.762,25.391,23.926,10.742
1620953927.502,26.855,30.273,23.926,29.785,42.480
1620953927.506,29.297,30.762,20.996,22.949,75.684
1620953927.510,28.809,32.715,25.391,17.578,37.598
1620953927.514,22.461,35.156,30.273,19.043,-15.625
1620953927.517,25.879,36.133,28.809,25.391,15.625
1620953927.521,27.344,34.668,30.762,36.621,23.438
1620953927.525,17.578,26.855,29.785,31.250,55.176
1620953927.529,9.277,25.879,32.227,30.273,43.457
1620953927.533,9.766,29.297,36.621,35.645,51.758
1620953927.546,29.785,33.203,36.133,32.227,41.992
1620953927.550,26.367,33.203,41.992,29.785,4.395
1620953927.554,9.277,31.250,41.992,26.855,53.711
1620953927.558,19.531,27.344,39.062,32.715,58.594
1620953927.562,36.133,23.926,45.410,43.457,18.555
1620953927.566,35.645,29.785,38.574,36.621,-12.207
1620953927.570,28.809,35.645,34.180,27.832,-1.953
1620953927.573,28.809,38.574,41.992,30.762,35.645
1620953927.577,25.391,37.109,45.410,30.762,32.715
1620953927.581,28.320,37.109,41.992,31.250,70.312
1620953927.585,26.855,33.203,36.133,24.414,30.273
1620953927.589,20.508,26.367,28.809,17.090,20.996
1620953927.585,28.320,24.902,21.973,19.043,48.340
1620953927.589,32.715,29.785,22.461,26.855,5.859
1620953927.593,27.344,33.691,21.973,22.949,-4.883
1620953927.597,24.902,33.691,19.531,13.184,-26.367
1620953927.601,26.367,33.691,26.367,20.508,-48.828
1620953927.605,22.949,25.879,30.273,22.949,-37.109
1620953927.609,22.461,23.926,27.832,19.043,4.883
1620953927.612,21.973,29.297,26.855,16.113,37.598
1620953927.616,15.625,33.691,26.367,22.949,44.922
1620953927.620,17.578,35.156,27.832,34.180,46.387
1620953927.624,19.043,31.738,34.668,33.203,13.672
1620953927.628,11.719,29.785,37.598,26.367,30.762
1620953927.641,14.160,33.203,35.645,28.809,26.855
1620953927.645,22.461,31.250,35.156,39.551,6.836
1620953927.649,19.043,27.832,33.203,33.203,23.926
1620953927.653,10.254,23.926,34.668,23.438,14.648
1620953927.657,10.742,26.367,37.598,22.461,-12.207
1620953927.661,16.602,30.273,39.062,27.344,-33.691
1620953927.665,23.926,27.832,36.133,28.809,-0.977
1620953927.668,21.484,28.320,33.203,19.043,43.457
1620953927.672,20.508,28.320,35.156,20.996,24.902
1620953927.676,20.996,32.227,31.250,32.227,-38.574
1620953927.680,25.879,31.250,28.320,35.156,-20.020
1620953927.684,30.273,31.250,25.879,33.203,85.449
1620953927.696,23.438,31.738,22.461,25.879,62.988
1620953927.700,30.273,24.902,28.809,33.691,20.508
1620953927.704,42.480,26.367,33.203,43.945,20.508
1620953927.708,26.855,31.738,33.691,18.555,30.762
1620953927.712,16.602,36.133,27.832,3.418,42.480
1620953927.716,17.090,35.645,23.438,6.836,5.859
1620953927.720,19.531,34.668,24.902,12.207,6.348
1620953927.723,27.832,34.180,23.438,12.695,46.387
1620953927.727,19.043,35.156,20.020,6.836,12.695
1620953927.731,13.184,34.668,20.020,17.090,30.273
1620953927.735,22.949,33.203,21.484,26.855,86.426
1620953927.739,27.832,32.227,23.926,31.738,31.738
1620953927.733,27.344,32.227,25.391,30.273,17.578
1620953927.737,32.715,36.133,22.949,30.762,59.570
1620953927.741,37.109,34.668,28.320,38.574,17.578
1620953927.745,50.781,30.762,35.156,42.969,-6.836
1620953927.749,57.617,35.645,35.156,42.969,-15.137
1620953927.753,34.668,35.645,33.691,45.410,25.391
1620953927.757,22.461,33.203,31.738,48.828,48.340
1620953927.760,21.484,32.227,31.250,53.223,30.762
1620953927.764,22.949,26.855,37.109,51.270,32.227
1620953927.768,24.414,25.879,39.062,35.645,-3.418
1620953927.772,13.184,29.297,38.086,31.250,-11.719
1620953927.776,9.766,26.855,38.574,38.574,2.441
1620953927.790,19.043,25.879,37.109,36.621,20.020
1620953927.794,20.020,26.367,37.598,29.785,-5.371
1620953927.798,15.625,23.438,35.156,30.273,-11.230
1620953927.802,20.020,20.996,36.621,36.133,-9.277
1620953927.806,25.879,24.902,41.016,42.969,51.758
1620953927.810,32.715,34.180,34.180,37.598,94.727
1620953927.814,33.203,35.645,29.785,20.508,10.742
1620953927.817,30.762,33.691,31.250,17.578,-64.941
1620953927.821,26.855,31.250,28.320,21.484,-30.762
1620953927.825,22.461,32.715,28.320,23.438,49.805
1620953927.829,13.672,32.227,31.738,14.160,52.246
1620953927.833,11.719,34.668,39.551,17.090,46.387
1620953927.827,16.113,35.156,41.504,25.879,58.105
1620953927.831,18.555,27.832,37.598,23.438,66.895
1620953927.835,24.414,20.996,34.180,18.066,56.152
1620953927.839,25.879,26.367,36.133,23.926,68.359
1620953927.843,29.785,28.809,37.598,34.180,59.082
1620953927.847,38.086,25.391,34.668,41.992,85.449
1620953927.851,33.691,27.832,33.691,39.551,67.383
1620953927.854,40.527,31.250,33.691,40.039,38.086
1620953927.858,46.875,34.180,33.203,53.223,36.133
1620953927.862,46.387,31.250,29.297,50.293,-0.488
1620953927.866,44.434,25.879,31.738,32.227,10.254
1620953927.870,17.578,24.902,35.156,18.066,26.855
1620953927.883,5.371,24.414,36.133,20.508,3.418
1620953927.887,17.090,24.414,32.715,28.320,63.965
1620953927.891,17.578,23.926,22.461,19.043,46.875
1620953927.895,12.207,25.879,21.973,11.719,-2.441
1620953927.899,10.742,30.273,32.227,15.625,20.996
1620953927.903,12.695,33.203,36.621,21.973,19.531
1620953927.907,18.066,35.645,37.109,27.832,15.625
1620953927.910,21.973,35.156,42.480,16.602,25.879
1620953927.914,22.461,33.203,40.039,10.742,78.613
1620953927.918,17.578,33.203,34.180,18.555,54.199
1620953927.922,18.066,35.156,35.156,26.367,60.547
1620953927.926,24.414,34.668,34.668,21.973,41.504
1620953927.923,14.648,35.645,36.133,14.648,23.438
1620953927.927,17.090,37.598,37.598,23.438,15.137
1620953927.931,26.855,32.715,35.645,25.391,0.488
1620953927.935,32.715,31.250,37.109,30.762,39.062
1620953927.939,48.340,33.691,41.016,49.805,17.578
1620953927.943,41.992,25.879,44.922,41.992,15.137
1620953927.947,18.555,21.973,47.363,23.926,8.789
1620953927.950,12.207,21.973,47.363,16.113,-17.578
1620953927.954,16.602,22.949,44.434,23.438,31.250
1620953927.958,6.836,22.949,46.875,27.832,28.809
1620953927.962,-1.465,16.602,52.734,27.832,-32.715
1620953927.966,9.277,14.160,47.363,27.832,12.207
1620953927.959,24.414,18.066,45.410,25.391,57.617
1620953927.963,25.879,17.090,46.875,20.996,-8.301
1620953927.967,27.832,19.531,43.945,18.555,-44.434
1620953927.971,28.320,17.578,42.480,23.926,-20.996
1620953927.975,8.301,14.160,39.062,20.996,-9.766
1620953927.979,-3.906,20.508,38.086,13.184,11.230
1620953927.983,9.766,25.391,35.156,20.508,-10.254
1620953927.986,10.254,25.879,36.133,21.973,-3.906
1620953927.990,9.766,29.297,44.922,17.090,17.090
1620953927.994,17.578,30.762,48.340,18.066,3.418
1620953927.998,13.184,28.809,43.457,13.672,14.160
1620953928.002,8.301,23.438,40.527,14.160,-2.441
1620953928.015,17.090,23.438,36.621,14.648,-40.527
1620953928.019,17.578,26.855,32.227,6.836,1.465
1620953928.023,2.930,22.949,31.738,5.371,65.918
1620953928.027,1.953,22.461,32.715,15.137,124.023
1620953928.031,8.301,23.926,37.109,23.926,113.770
1620953928.035,13.184,24.414,42.480,29.297,49.316
1620953928.039,13.184,30.762,46.875,28.809,36.621
1620953928.042,17.090,33.203,44.922,33.691,24.902
1620953928.046,31.738,23.438,43.945,43.945,66.406
1620953928.050,40.527,27.344,38.574,40.039,19.531
1620953928.054,36.621,35.156,32.715,35.156,-31.738
1620953928.058,36.133,36.621,34.668,40.527,40.039
1620953928.071,41.992,36.621,37.109,44.434,39.062
1620953928.075,43.457,26.855,33.203,40.039,-11.719
1620953928.079,36.621,24.414,35.645,26.855,24.902
1620953928.083,30.273,33.203,39.551,20.508,29.785
1620953928.087,23.926,32.715,35.156,23.926,27.832
1620953928.091,26.855,31.738,34.180,23.926,40.039
1620953928.095,28.320,34.180,37.598,23.438,-33.691
1620953928.098,14.648,33.203,34.668,16.113,-32.227
1620953928.102,11.719,31.738,36.621,22.461,51.758
1620953928.106,20.996,37.598,37.598,35.645,1.953
1620953928.110,13.672,37.109,33.691,29.785,-16.602
1620953928.114,10.742,32.227,34.668,27.832,15.625
1620953928.108,21.973,35.156,35.156,31.250,71.289
1620953928.112,25.879,39.551,31.738,33.203,88.867
1620953928.116,13.184,35.645,30.273,29.785,31.738
1620953928.120,17.090,30.762,33.203,22.461,26.367
1620953928.124,25.879,34.668,37.598,26.855,26.855
1620953928.128,23.438,31.738,40.039,41.504,10.742
1620953928.132,26.367,26.855,38.086,42.480,23.926
1620953928.135,29.785,29.297,33.203,33.691,30.762
1620953928.139,31.250,27.344,31.738,34.180,-12.207
1620953928.143,39.551,29.297,31.250,42.480,-13.672
1620953928.147,42.969,33.691,36.621,41.504,29.785
1620953928.151,42.969,41.504,43.945,38.574,44.922
1620953928.147,40.039,37.109,35.156,33.203,4.395
1620953928.151,30.762,25.879,35.156,28.809,-40.039
1620953928.155,32.227,24.414,41.504,30.273,5.371
1620953928.159,30.762,21.973,39.551,23.926,8.301
1620953928.163,29.785,26.855,35.645,22.461,15.625
1620953928.167,32.715,24.902,34.668,25.391,74.219
1620953928.171,29.785,15.137,31.250,32.715,30.762
1620953928.174,40.039,24.902,26.855,50.293,-12.207
1620953928.178,46.387,30.273,28.320,54.199,53.223
1620953928.182,22.949,26.367,32.227,37.598,47.363
1620953928.186,6.348,27.344,27.832,24.902,24.902
1620953928.190,7.324,22.949,29.297,24.902,72.266
1620953928.203,11.230,19.043,38.574,27.832,48.340
1620953928.207,12.695,17.090,39.551,25.879,45.898
1620953928.211,14.160,17.090,41.016,27.832,2.441
1620953928.215,18.066,21.973,40.039,26.855,19.043
1620953928.219,14.160,27.344,35.156,25.391,36.621
1620953928.223,6.836,29.785,29.297,24.414,14.648
1620953928.227,9.277,21.973,24.414,25.879,37.598
1620953928.230,14.160,18.555,21.484,25.391,7.324
1620953928.234,13.672,22.949,22.949,14.648,-6.836
1620953928.238,17.578,26.367,25.879,12.695,-14.648
1620953928.242,26.855,27.832,30.273,19.043,22.949
1620953928.246,18.555,25.879,30.273,22.461,54.688
1620953928.240,0.488,25.879,24.902,21.484,68.359
1620953928.244,-2.930,25.391,25.879,21.973,10.254
1620953928.248,4.883,22.461,25.391,24.902,17.578
1620953928.252,14.160,25.879,19.043,33.691,67.871
1620953928.256,19.531,24.902,22.461,35.156,75.684
1620953928.260,16.602,23.926,30.273,25.391,57.129
1620953928.264,12.695,33.203,29.785,21.973,38.086
1620953928.267,18.066,32.715,20.996,26.367,41.992
1620953928.271,23.438,33.691,20.508,25.391,18.066
1620953928.275,27.832,39.551,31.250,12.695,25.879
1620953928.279,21.973,33.691,35.156,8.789,51.270
1620953928.283,18.555,30.762,32.227,15.137,73.242
1620953928.296,24.902,33.203,35.156,24.902,-19.531
1620953928.300,21.973,30.762,39.062,23.926,-60.059
1620953928.304,11.719,30.762,33.691,15.625,-17.090
1620953928.308,17.090,33.203,32.715,23.438,34.668
1620953928.312,22.461,33.691,34.180,35.645,49.316
1620953928.316,21.484,32.715,33.203,39.062,-24.902
1620953928.320,30.762,31.738,37.109,30.273,-5.859
1620953928.323,26.367,32.715,36.133,25.879,54.688
1620953928.327,20.996,32.715,32.715,37.598,12.207
1620953928.331,28.809,29.297,26.855,36.621,-16.113
1620953928.335,37.109,26.855,22.461,22.949,19.043
1620953928.339,34.668,26.367,24.414,18.066,23.926
1620953928.333,32.227,25.879,30.273,26.855,30.273
1620953928.337,25.391,22.461,28.809,28.809,6.348
1620953928.341,5.859,24.414,23.438,28.809,23.438
1620953928.345,3.906,29.297,26.367,21.484,21.973
1620953928.349,8.789,32.227,30.273,26.367,1.953
1620953928.353,17.090,33.203,29.297,44.434,15.625
1620953928.357,22.949,37.109,27.832,39.551,-12.695
1620953928.360,24.902,36.621,24.902,29.297,1.953
1620953928.364,25.391,31.738,28.809,35.645,21.973
1620953928.368,25.879,25.879,31.738,41.016,35.645
1620953928.372,29.785,28.809,29.297,33.203,24.902
1620953928.376,20.020,36.621,24.414,28.320,41.992
1620953928.390,17.578,33.203,27.344,28.320,10.742
1620953928.394,19.043,27.832,31.738,29.785,0.488
1620953928.398,31.738,28.320,30.273,29.785,50.293
1620953928.402,37.598,35.645,32.227,29.785,-4.395
1620953928.406,14.648,35.156,30.273,29.297,-39.062
1620953928.410,20.020,30.762,24.414,33.203,-23.926
1620953928.414,30.273,28.320,20.996,34.180,44.922
1620953928.417,36.621,22.461,23.926,39.062,37.109
1620953928.421,60.547,30.762,23.438,59.082,-4.883
1620953928.425,58.594,40.527,18.555,53.223,29.785
1620953928.429,41.016,41.504,12.695,27.832,41.992
1620953928.433,30.762,39.551,9.766,23.438,33.691
1620953928.428,30.762,40.527,10.742,22.949,36.133
1620953928.432,28.320,47.852,6.348,20.508,61.523
1620953928.436,17.090,52.246,7.812,17.578,72.266
1620953928.440,22.949,52.246,12.207,8.789,40.039
1620953928.444,30.762,54.199,5.371,12.695,-10.742
1620953928.448,30.273,58.594,-1.953,5.859,21.484
1620953928.452,33.691,60.059,-5.371,0.488,34.668
1620953928.455,42.969,68.359,-9.277,7.812,-33.691
1620953928.459,41.016,69.824,-7.324,-0.488,-35.156
1620953928.463,44.922,69.824,-3.418,9.766,7.324
1620953928.467,52.734,71.289,-3.906,22.461,18.555
1620953928.471,56.641,64.453,-0.488,28.320,63.477
1620953928.485,52.246,62.500,2.930,23.926,28.809
1620953928.489,39.551,59.570,5.859,14.160,30.273
1620953928.493,39.062,52.246,7.812,16.113,89.355
1620953928.497,36.621,48.828,4.395,20.508,111.816
1620953928.501,38.086,44.434,5.371,20.996,120.117
1620953928.505,54.688,40.527,8.301,12.207,43.457
1620953928.509,47.852,41.504,10.254,10.742,-16.113
1620953928.512,41.504,39.062,14.648,28.320,29.297
1620953928.516,52.246,41.016,18.555,40.039,56.152
1620953928.520,55.664,46.875,23.438,32.227,29.297
1620953928.524,64.453,46.875,22.461,25.879,-12.207
1620953928.528,62.988,49.805,17.578,37.598,15.137
1620953928.521,55.664,45.898,18.066,42.480,122.070
1620953928.525,39.551,36.621,20.508,30.762,75.684
1620953928.529,36.621,31.250,23.926,23.926,5.859
1620953928.533,43.457,35.645,21.484,26.367,44.434
1620953928.537,41.504,38.086,19.531,37.598,60.547
1620953928.541,46.387,36.621,23.438,32.715,26.367
1620953928.545,41.016,37.598,20.020,18.066,11.230
1620953928.548,46.875,36.621,19.531,24.902,-4.395
1620953928.552,56.152,34.180,26.367,35.645,-2.930
1620953928.556,52.246,32.227,18.555,29.785,-16.602
1620953928.560,45.410,35.156,17.578,24.902,-7.324
1620953928.564,37.598,34.668,27.832,35.156,27.832
1620953928.577,30.762,33.203,28.320,37.109,35.156
1620953928.581,30.762,36.621,34.668,42.969,-7.812
1620953928.585,33.203,38.574,37.598,41.992,28.320
1620953928.589,14.648,34.180,31.250,30.762,52.734
1620953928.593,16.602,34.668,27.344,38.086,11.719
1620953928.597,28.320,35.645,29.785,39.551,49.805
1620953928.601,27.344,37.109,37.109,23.926,16.113
1620953928.604,28.809,37.109,38.574,11.230,-45.410
1620953928.608,28.320,33.691,34.668,12.695,-8.301
1620953928.612,35.645,37.109,33.691,26.367,9.766
1620953928.616,38.574,39.551,38.086,34.668,0.000
1620953928.620,23.438,40.527,38.086,19.531,6.836
1620953928.616,20.508,39.551,35.156,9.277,35.645
1620953928.620,36.133,30.273,36.621,20.508,-22.461
1620953928.624,37.598,39.551,31.738,22.949,-20.996
1620953928.628,34.180,40.527,32.227,13.672,66.406
1620953928.632,39.062,26.367,37.598,15.625,66.406
1620953928.636,27.832,30.273,36.621,22.461,-13.672
1620953928.640,19.043,35.156,43.945,24.902,-4.883
1620953928.643,21.973,39.062,46.387,22.461,43.457
1620953928.647,19.043,36.133,40.039,19.531,84.961
1620953928.651,22.949,30.762,38.574,21.973,93.262
1620953928.655,24.902,32.715,38.086,28.809,40.527
1620953928.659,15.137,31.738,34.668,25.879,22.461
1620953928.671,18.555,30.273,35.645,25.391,-13.672
1620953928.675,18.066,33.691,34.180,28.809,1.953
1620953928.679,9.766,29.785,28.809,29.785,65.918
1620953928.683,6.836,26.367,30.762,33.691,40.527
1620953928.687,3.418,33.203,29.297,22.461,26.855
1620953928.691,13.184,27.832,28.809,22.949,49.805
1620953928.695,23.926,22.461,32.227,32.227,54.688
1620953928.698,26.855,27.832,32.715,29.297,2.441
1620953928.702,26.367,27.832,36.621,22.461,-41.504
1620953928.706,28.320,27.344,33.203,25.879,5.371
1620953928.710,48.828,33.691,25.879,51.758,72.266
1620953928.714,48.828,32.715,33.203,58.105,61.035
1620953928.710,21.484,28.809,42.480,32.227,-13.184
1620953928.714,0.000,28.809,43.945,14.648,-4.395
1620953928.718,10.742,23.438,49.316,28.320,22.949
1620953928.722,27.832,22.949,50.781,38.086,61.035
1620953928.726,22.949,18.066,44.922,21.973,59.570
1620953928.730,20.996,23.438,42.969,13.672,8.301
1620953928.734,20.996,27.832,36.621,16.113,40.039
1620953928.737,25.391,21.484,33.203,24.414,20.996
1620953928.741,16.602,20.996,37.109,24.414,18.555
1620953928.745,0.000,19.531,39.062,16.602,-8.301
1620953928.749,-4.883,17.090,40.527,22.949,-35.645
1620953928.753,3.418,17.578,36.133,30.762,0.977
1620953928.766,8.301,19.531,33.203,29.297,22.461
1620953928.770,10.254,21.973,34.180,29.297,25.879
1620953928.774,15.137,25.879,34.668,28.320,22.949
1620953928.778,25.391,25.879,40.039,36.133,15.625
1620953928.782,31.738,30.762,39.551,44.434,-6.836
1620953928.786,33.203,33.203,38.086,37.598,-19.043
1620953928.790,31.738,28.809,40.527,32.227,-27.832
1620953928.793,32.715,32.227,37.598,35.645,34.180
1620953928.797,31.250,36.621,34.180,32.227,75.195
1620953928.801,27.344,35.156,33.203,27.832,54.688
1620953928.805,25.879,33.203,30.273,35.156,57.129
1620953928.809,16.113,37.109,27.344,31.250,30.762
1620953928.802,21.973,35.156,30.273,34.668,9.277
1620953928.806,27.344,30.762,31.250,41.016,-9.277
1620953928.810,28.320,33.691,30.273,29.785,-6.836
1620953928.814,25.391,33.203,30.273,32.715,30.762
1620953928.818,21.973,26.855,34.180,40.527,8.301
1620953928.822,22.949,27.344,41.016,37.598,-47.363
1620953928.826,18.555,30.273,34.180,29.297,-10.742
1620953928.829,13.672,30.762,30.762,21.973,63.965
1620953928.833,12.207,28.320,40.039,35.645,46.875
1620953928.837,18.555,26.855,39.062,40.527,23.926
1620953928.841,22.461,30.762,37.109,26.367,38.086
1620953928.845,26.855,35.645,39.062,23.438,60.547
1620953928.858,24.902,32.227,34.668,31.250,35.156
1620953928.862,20.996,24.902,27.832,31.738,5.371
1620953928.866,21.973,28.320,31.250,26.367,8.301
1620953928.870,11.230,36.133,41.016,17.578,13.184
1620953928.874,3.418,38.574,40.039,11.230,73.242
1620953928.878,13.672,35.645,34.668,18.066,71.289
1620953928.882,18.555,32.715,32.227,20.996,14.648
1620953928.885,16.113,29.785,31.250,14.160,25.879
1620953928.889,11.719,27.832,30.762,12.695,65.918
1620953928.893,13.184,30.762,27.344,18.555,44.922
1620953928.897,20.508,29.297,30.273,22.949,30.273
1620953928.901,19.043,37.598,39.551,21.973,55.176
1620953928.897,9.277,34.668,35.645,25.879,40.527
1620953928.901,5.859,29.785,32.227,32.715,-16.602
1620953928.905,20.508,33.691,34.668,31.250,-24.902
1620953928.909,22.461,33.691,32.227,23.926,-8.301
1620953928.913,19.531,36.133,29.785,21.484,56.152
1620953928.917,24.902,34.668,27.344,26.855,12.695
1620953928.921,22.461,33.691,27.344,28.320,-54.199
1620953928.924,23.926,35.645,29.297,21.484,-7.324
1620953928.928,17.090,34.668,27.832,19.043,0.000
1620953928.932,6.836,33.691,31.250,22.949,23.926
1620953928.936,8.789,32.715,30.762,22.461,23.926
1620953928.940,16.113,35.156,31.250,27.344,42.480
1620953928.952,20.508,38.574,32.227,28.809,31.250
1620953928.956,11.719,35.645,29.785,19.531,27.832
1620953928.960,12.695,30.762,36.133,28.809,56.641
1620953928.964,19.531,30.762,34.668,35.645,46.875
1620953928.968,21.973,29.297,28.809,23.926,58.594
1620953928.972,19.531,29.785,32.715,16.113,30.762
1620953928.976,38.574,38.086,27.832,33.203,-1.953
1620953928.979,47.852,31.250,30.762,50.293,18.555
1620953928.983,15.137,25.879,35.156,19.043,-12.695
1620953928.987,-2.930,26.855,31.738,-2.441,-15.625
1620953928.991,2.441,25.879,31.250,10.254,54.199
1620953928.995,11.230,21.484,37.109,24.414,81.543
1620953928.991,10.254,17.090,49.805,21.973,15.625
1620953928.995,3.906,19.043,52.734,10.742,-10.254
1620953928.999,0.977,19.043,46.387,11.719,60.547
1620953929.003,11.719,20.020,46.387,18.066,20.508
1620953929.007,20.996,24.414,46.387,29.297,-48.828
1620953929.011,16.113,22.461,42.969,26.855,-1.465
1620953929.015,8.301,20.996,35.645,24.902,47.363
1620953929.018,9.766,19.531,36.133,32.715,4.883
1620953929.022,11.719,20.508,41.504,33.691,35.156
1620953929.026,16.113,24.414,42.480,30.762,27.344
1620953929.030,18.066,28.809,40.527,21.973,-56.152
1620953929.034,21.484,29.297,42.480,25.391,10.742
1620953929.047,30.273,22.949,47.852,37.109,99.609
1620953929.051,13.184,23.438,46.875,43.457,78.613
1620953929.055,-0.977,23.926,41.504,30.273,31.738
1620953929.059,0.977,24.414,39.062,21.973,71.777
1620953929.063,2.930,25.391,30.273,23.926,53.223
1620953929.067,14.160,12.207,33.203,23.438,76.172
1620953929.071,15.137,15.137,41.016,22.461,55.176
1620953929.074,3.418,27.344,32.715,17.090,-27.344
1620953929.078,9.766,22.461,30.273,18.555,23.438
1620953929.082,11.719,23.438,31.738,23.926,54.199
1620953929.086,13.672,29.785,28.320,17.090,30.762
1620953929.090,20.020,30.273,33.691,6.348,41.992
1620953929.083,27.832,28.809,35.645,19.531,18.066
1620953929.087,42.480,28.809,33.691,30.762,8.301
1620953929.091,27.832,29.297,36.133,29.297,28.809
1620953929.095,27.832,32.715,39.062,28.809,36.621
1620953929.099,39.062,29.785,36.621,30.762,-31.250
1620953929.103,35.156,27.832,34.180,36.133,-48.340
1620953929.107,36.133,36.133,32.715,37.109,-40.039
1620953929.110,28.809,30.273,33.203,37.109,15.137
1620953929.114,12.207,20.020,33.691,37.109,61.035
1620953929.118,6.836,23.438,31.738,38.086,66.406
1620953929.122,12.207,24.414,32.227,35.645,20.508
1620953929.126,4.395,22.461,32.715,27.832,11.719
1620953929.140,2.441,23.438,34.668,21.973,25.391
1620953929.144,10.254,25.391,31.250,26.855,26.367
1620953929.148,15.625,24.902,29.785,32.227,30.762
1620953929.152,21.973,29.785,32.227,27.344,45.898
1620953929.156,22.949,37.598,31.738,26.855,53.223
1620953929.160,27.344,36.133,27.344,31.738,19.531
1620953929.164,32.227,35.645,26.855,24.414,26.367
1620953929.167,28.320,38.574,32.715,18.066,49.805
1620953929.171,22.949,33.691,33.691,16.602,31.250
1620953929.175,24.902,37.598,34.668,15.137,-9.277
1620953929.179,34.180,43.457,36.621,17.578,31.738
1620953929.183,37.598,41.016,36.133,22.461,57.129
1620953929.177,27.832,40.039,35.645,20.020,36.621
1620953929.181,20.020,37.598,26.367,18.066,31.250
1620953929.185,24.902,36.621,24.414,33.691,38.086
1620953929.189,27.344,43.457,29.785,41.016,38.086
1620953929.193,22.949,41.504,27.344,32.227,78.125
1620953929.197,20.996,35.645,29.785,27.344,14.648
1620953929.201,25.879,41.016,29.785,28.320,-19.043
1620953929.204,20.020,43.457,32.227,28.320,52.246
1620953929.208,8.301,37.109,34.668,19.531,58.105
1620953929.212,13.672,35.156,31.738,15.137,32.227
1620953929.216,15.137,38.574,35.156,20.020,49.805
1620953929.220,14.648,39.551,38.574,29.297,85.449
1620953929.233,18.066,37.109,33.691,29.297,66.406
1620953929.237,23.438,34.180,27.344,20.020,77.637
1620953929.241,20.996,34.668,31.250,26.367,48.828
1620953929.245,20.508,35.645,30.273,41.504,64.941
1620953929.249,28.809,33.203,29.785,42.480,52.246
1620953929.253,26.367,34.180,31.250,30.273,14.160
1620953929.257,21.973,35.156,29.785,24.414,25.879
1620953929.260,29.297,35.645,33.203,28.809,-4.395
1620953929.264,38.574,35.156,33.691,37.109,-31.250
1620953929.268,34.180,39.551,28.320,31.738,-22.461
1620953929.272,26.855,43.945,31.250,24.414,31.250
1620953929.276,28.320,38.574,30.762,25.391,18.066
1620953929.272,30.762,32.227,26.367,22.949,-7.324
1620953929.276,30.273,29.785,23.926,20.020,-13.184
1620953929.280,42.969,32.715,20.996,36.621,-66.895
1620953929.284,50.293,32.227,23.926,47.363,-24.902
1620953929.288,29.785,29.785,29.297,33.203,8.301
1620953929.292,11.230,28.809,33.691,20.508,8.301
1620953929.296,6.348,29.785,36.621,16.602,0.000
1620953929.299,3.418,23.438,39.551,20.020,-14.648
1620953929.303,-2.441,14.160,40.039,25.879,37.598
1620953929.307,-4.395,8.301,38.086,28.809,47.363
1620953929.311,1.465,5.859,38.086,18.066,-3.418
1620953929.315,2.930,8.301,41.016,13.672,28.809
1620953929.330,-3.906,13.672,38.086,21.484,26.367
1620953929.334,-2.441,19.531,34.180,22.461,20.020
1620953929.338,5.859,18.555,35.645,19.043,38.086
1620953929.342,14.160,19.531,34.668,19.531,37.598
1620953929.346,17.578,23.926,30.762,23.438,20.996
1620953929.350,16.602,21.973,27.832,32.227,83.008
1620953929.354,17.578,22.461,34.180,35.156,78.125
1620953929.357,16.602,22.949,35.645,20.996,10.254
1620953929.361,17.578,22.461,32.227,22.461,23.926
1620953929.365,18.555,23.438,31.738,31.250,49.316
1620953929.369,18.066,23.438,27.344,26.855,90.332
1620953929.373,18.066,31.738,26.855,19.531,66.895
1620953929.365,13.672,34.668,31.250,19.531,51.758
1620953929.369,16.602,28.320,35.156,26.855,26.367
1620953929.373,21.973,25.879,36.621,23.438,18.555
1620953929.377,7.812,28.809,37.598,16.602,71.289
1620953929.381,0.977,31.250,36.133,20.508,19.531
1620953929.385,12.207,26.367,33.691,32.227,-52.246
1620953929.389,21.484,28.320,36.621,38.086,-45.410
1620953929.392,24.414,31.738,40.039,34.180,-4.883
1620953929.396,21.973,29.297,38.574,28.809,57.617
1620953929.400,26.367,27.344,41.992,43.457,60.059
1620953929.404,42.969,28.320,38.574,53.223,41.504
1620953929.408,40.527,32.715,32.715,33.691,25.879
1620953929.421,28.320,30.762,34.180,24.414,4.395
1620953929.425,37.109,23.438,39.062,29.785,-51.270
1620953929.429,29.297,25.391,41.992,34.668,-15.137
1620953929.433,25.879,26.367,44.922,36.133,58.594
1620953929.437,29.785,23.438,43.945,25.879,44.922
1620953929.441,19.531,30.273,40.039,20.020,57.129
1620953929.445,21.973,35.156,37.109,26.367,64.453
1620953929.448,29.297,29.785,38.086,31.738,27.344
1620953929.452,25.879,25.391,43.945,34.668,-54.199
1620953929.456,26.367,28.320,46.387,29.785,-43.457
1620953929.460,32.715,29.785,46.387,35.645,34.180
1620953929.464,35.156,31.250,39.551,43.945,28.320
1620953929.458,31.738,36.133,37.598,33.203,-36.133
1620953929.462,22.949,33.203,43.457,21.484,-59.082
1620953929.466,16.113,32.715,40.527,24.414,36.133
1620953929.470,17.578,35.645,37.109,26.367,88.867
1620953929.474,17.090,33.203,39.551,17.578,31.738
1620953929.478,11.719,31.250,39.551,3.418,0.488
1620953929.482,14.160,28.809,37.598,11.230,23.926
1620953929.485,18.555,22.949,32.715,15.625,41.992
1620953929.489,30.762,23.926,27.344,9.277,29.785
1620953929.493,32.227,25.391,25.879,8.789,29.297
1620953929.497,26.367,25.391,28.320,12.695,5.371
1620953929.501,35.156,23.438,31.250,36.133,-32.227
1620953929.515,33.203,25.879,29.297,41.992,-12.207
1620953929.519,35.645,32.715,26.367,30.273,2.930
1620953929.523,36.133,34.180,23.438,32.715,12.207
1620953929.527,33.203,31.250,22.461,33.691,45.410
1620953929.531,29.785,29.785,26.367,35.156,-18.555
1620953929.535,23.926,29.297,28.809,45.410,-22.461
1620953929.539,26.855,34.180,24.902,47.363,42.969
1620953929.542,20.508,33.691,20.020,27.344,58.105
1620953929.546,17.090,31.250,19.531,19.531,39.062
1620953929.550,21.973,35.156,23.926,16.113,39.062
1620953929.554,20.020,38.086,27.344,3.906,38.086
1620953929.558,20.996,30.762,22.949,13.672,8.789
1620953929.553,27.832,27.344,18.066,25.391,16.602
1620953929.557,30.273,28.809,29.297,21.973,18.555
1620953929.561,23.438,23.926,34.180,16.113,-24.414
1620953929.565,18.555,26.367,29.785,13.184,31.250
1620953929.569,26.855,27.344,31.738,21.973,67.871
1620953929.573,32.715,25.879,33.203,31.738,16.602
1620953929.577,19.531,25.879,31.250,24.414,-5.371
1620953929.580,11.230,25.879,28.320,17.578,15.137
1620953929.584,13.672,22.461,29.785,23.438,37.598
1620953929.588,15.137,19.531,30.762,26.855,-9.277
1620953929.592,20.020,20.508,31.738,28.320,0.000
1620953929.596,21.973,22.461,35.156,29.785,4.883
1620953929.610,20.996,26.367,41.016,26.855,-3.418
1620953929.614,27.832,30.273,42.480,29.785,59.082
1620953929.618,29.297,31.738,36.133,31.250,36.133
1620953929.622,21.484,31.250,39.551,33.691,27.344
1620953929.626,14.160,31.738,41.504,31.250,71.777
1620953929.630,16.113,26.367,36.133,31.250,48.828
1620953929.634,22.949,25.879,40.039,38.574,56.152
1620953929.637,21.484,31.250,42.480,34.180,89.355
1620953929.641,14.648,26.855,35.645,33.203,30.762
1620953929.645,23.926,25.391,31.738,33.203,-19.043
1620953929.649,40.039,30.762,41.016,37.109,-8.301
1620953929.653,24.902,33.691,43.945,34.668,58.594
1620953929.665,7.324,31.250,36.133,20.020,41.504
1620953929.669,18.555,28.809,38.574,21.973,15.625
1620953929.673,34.180,28.320,38.574,35.156,12.695
1620953929.677,20.996,23.438,36.133,35.645,35.645
1620953929.681,15.625,26.855,36.621,25.391,51.758
1620953929.685,29.785,32.227,39.062,21.973,7.812
1620953929.689,36.133,32.227,36.621,31.738,7.324
1620953929.692,29.297,31.738,31.250,29.785,60.547
1620953929.696,22.461,28.809,31.738,19.043,60.059
1620953929.700,25.879,27.344,36.621,19.043,97.168
1620953929.704,18.555,25.391,37.598,27.344,16.113
1620953929.708,12.695,22.461,38.086,34.180,-134.766
1620953929.702,17.578,22.461,38.574,26.855,-12.695
1620953929.706,9.766,16.113,30.273,14.160,87.402
1620953929.710,9.766,12.207,26.367,20.508,21.973
1620953929.714,20.508,19.531,26.367,37.598,28.809
1620953929.718,24.414,26.367,27.344,31.250,80.078
1620953929.722,24.414,28.809,32.227,28.320,67.871
1620953929.726,35.156,28.320,33.203,34.668,40.527
1620953929.729,41.504,31.250,33.691,41.992,54.688
1620953929.733,47.852,32.715,41.504,48.340,62.012
1620953929.737,46.387,33.203,41.016,35.645,23.926
1620953929.741,39.551,33.203,34.180,36.133,-8.789
1620953929.745,38.574,33.203,32.227,42.969,-2.441
1620953929.740,36.133,34.668,28.809,32.715,-18.555
1620953929.744,46.387,33.691,26.855,32.227,28.320
1620953929.748,45.410,32.227,31.738,32.715,69.336
1620953929.752,19.531,26.367,35.645,10.742,24.414
1620953929.756,8.789,26.367,35.156,0.000,30.273
1620953929.760,17.578,27.344,34.180,0.000,96.191
1620953929.764,28.320,24.902,32.715,-6.836,116.699
1620953929.767,20.996,25.391,34.668,-0.977,47.852
1620953929.771,14.160,21.973,36.133,9.277,51.758
1620953929.775,15.137,24.414,34.668,4.395,71.777
1620953929.779,12.695,31.250,36.621,3.418,28.809
1620953929.783,18.555,32.715,38.574,13.184,55.664
1620953929.796,10.742,27.832,35.645,19.531,39.062
1620953929.800,2.930,25.391,32.715,19.043,10.742
1620953929.804,3.906,28.320,30.762,20.020,41.504
1620953929.808,-1.953,23.926,30.762,26.367,-32.715
1620953929.812,17.090,21.484,36.133,41.016,-52.734
1620953929.816,32.715,25.391,38.086,47.363,57.617
1620953929.820,24.902,28.809,32.715,42.969,53.711
1620953929.823,24.414,30.762,33.203,45.410,-3.418
1620953929.827,36.621,29.297,35.645,60.059,-34.180
1620953929.831,41.504,29.297,31.250,56.641,-8.789
1620953929.835,36.133,29.785,25.879,38.574,7.324
1620953929.839,28.809,27.832,20.508,27.344,-2.930
1620953929.835,34.180,27.832,22.949,32.715,20.020
1620953929.839,32.227,31.738,26.855,45.410,25.879
1620953929.843,19.531,22.949,26.855,35.645,37.109
1620953929.847,18.555,21.973,28.320,29.785,78.125
1620953929.851,21.484,28.320,27.832,32.227,36.621
1620953929.855,26.855,31.738,33.691,37.109,8.301
1620953929.859,31.738,31.250,32.715,39.551,31.250
1620953929.862,29.297,25.879,27.344,24.902,32.227
1620953929.866,24.414,28.320,28.320,20.020,-0.977
1620953929.870,25.391,29.785,27.832,21.973,-0.488
1620953929.874,26.855,30.273,29.297,23.438,33.203
1620953929.878,26.855,30.273,35.156,24.414,19.043
1620953929.891,26.855,34.180,38.574,12.207,-35.156
1620953929.895,25.391,33.203,38.086,11.719,-12.207
1620953929.899,21.484,27.344,35.645,10.254,50.293
1620953929.903,20.020,31.250,29.785,1.465,33.203
1620953929.907,23.926,31.738,28.320,8.789,26.855
1620953929.911,38.086,28.320,34.180,22.949,55.664
1620953929.915,49.316,29.297,32.715,34.668,66.406
1620953929.918,43.945,31.738,29.785,41.016,94.727
1620953929.922,43.457,35.645,33.203,40.039,92.285
1620953929.926,32.227,37.598,37.109,44.922,62.500
1620953929.930,25.391,32.715,39.062,57.129,51.758
1620953929.934,47.852,24.902,37.598,70.312,-5.371
1620953929.927,42.480,25.879,29.297,61.035,-6.348
1620953929.931,5.859,27.832,21.484,25.391,4.883
1620953929.935,-1.465,29.297,21.973,19.531,-4.395
1620953929.939,9.766,37.598,28.809,35.156,8.789
1620953929.943,3.906,41.016,38.086,28.809,47.363
1620953929.947,-3.906,39.551,34.668,20.508,47.852
1620953929.951,-3.906,30.273,27.344,20.020,-5.371
1620953929.954,11.719,28.320,31.250,20.996,-12.695
1620953929.958,26.367,31.738,33.691,18.066,-37.109
1620953929.962,26.367,31.738,32.227,15.625,-31.250
1620953929.966,33.203,32.715,33.691,24.414,40.039
1620953929.970,55.664,45.410,42.969,41.504,48.828
1620953929.983,48.828,45.410,35.156,24.414,-16.602
1620953929.987,28.320,26.367,25.391,9.277,59.570
1620953929.991,36.621,25.391,31.250,21.973,68.359
1620953929.995,27.832,25.879,29.297,20.996,34.668
1620953929.999,24.414,30.762,29.297,23.438,79.102
1620953930.003,38.574,34.180,33.691,27.344,87.891
1620953930.007,42.969,40.039,34.668,20.020,72.266
1620953930.010,46.875,44.922,29.785,17.578,53.223
1620953930.014,44.922,29.785,26.367,20.508,70.801
1620953930.018,28.320,28.320,29.297,17.090,57.617
1620953930.022,29.785,34.668,27.344,14.160,8.789
1620953930.026,37.598,32.227,26.855,22.949,18.066
1620953930.021,37.598,32.715,34.180,35.645,-5.859
1620953930.025,37.109,35.645,37.598,34.180,-6.348
1620953930.029,25.391,34.180,35.645,22.949,0.488
1620953930.033,15.137,30.273,36.621,25.879,56.152
1620953930.037,18.066,36.621,38.086,36.133,76.172
1620953930.041,16.602,35.156,35.645,32.227,5.859
1620953930.045,3.906,28.809,34.180,30.273,34.180
1620953930.048,4.883,30.762,33.203,30.762,37.109
1620953930.052,9.277,32.715,33.203,34.668,-1.953
1620953930.056,8.301,26.855,28.809,43.457,3.906
1620953930.060,8.789,29.297,27.344,39.062,-16.113
1620953930.064,9.766,30.273,30.762,34.668,46.387
1620953930.077,5.859,28.320,30.762,37.598,23.438
1620953930.081,5.859,26.855,30.273,35.156,-13.672
1620953930.085,12.695,24.414,30.273,27.832,8.789
1620953930.089,13.672,32.715,33.691,21.973,-9.277
1620953930.093,15.625,30.273,35.645,24.414,26.367
1620953930.097,23.926,26.367,34.668,25.391,29.785
1620953930.101,25.879,27.832,32.227,20.996,-17.578
1620953930.104,16.602,33.691,32.715,20.996,23.926
1620953930.108,24.414,38.086,26.367,20.020,19.043
1620953930.112,33.203,33.691,26.367,20.996,17.578
1620953930.116,26.367,35.156,33.691,22.461,62.988
1620953930.120,20.996,36.621,33.203,15.625,96.680
1620953930.116,18.066,36.621,32.227,9.277,31.738
1620953930.120,30.762,38.574,32.715,20.996,-43.457
1620953930.124,36.133,33.203,29.785,26.855,-26.855
1620953930.128,23.926,27.344,26.367,16.602,36.133
1620953930.132,28.809,31.738,30.762,20.508,41.992
1620953930.136,26.855,29.785,30.273,33.691,11.230
1620953930.140,23.926,26.367,30.762,40.039,10.254
1620953930.143,28.809,35.156,30.762,31.738,-34.668
1620953930.147,15.137,31.250,27.832,26.855,11.230
1620953930.151,13.672,23.438,32.715,35.156,35.645
1620953930.155,22.461,19.043,36.621,40.039,21.484
1620953930.159,12.695,17.578,35.645,36.621,44.434
1620953930.171,2.930,27.832,34.668,36.133,40.039
1620953930.175,4.395,36.133,32.227,29.785,42.969
1620953930.179,9.277,38.086,33.691,28.320,62.500
1620953930.183,19.531,35.645,34.668,33.203,31.250
1620953930.187,13.672,37.598,32.715,27.344,-2.441
1620953930.191,10.254,38.574,31.738,22.949,37.109
1620953930.195,17.578,35.156,32.715,33.203,44.434
1620953930.198,19.531,34.668,33.691,32.715,-7.812
1620953930.202,32.715,37.598,34.668,34.180,-13.184
1620953930.206,44.434,33.691,34.180,47.852,32.227
1620953930.210,41.992,30.273,33.203,39.551,20.508
1620953930.214,16.602,31.250,33.203,21.484,-6.836
1620953930.208,-2.441,31.738,36.133,3.418,-20.020
1620953930.212,7.812,31.738,35.645,3.418,36.133
1620953930.216,19.531,24.902,34.668,11.719,60.059
1620953930.220,20.020,20.020,36.621,15.137,4.883
1620953930.224,29.297,18.555,35.645,16.602,-24.414
1620953930.228,30.762,20.996,35.156,5.859,-11.719
1620953930.232,23.438,27.832,36.133,4.883,-6.836
1620953930.235,22.949,24.902,32.715,14.160,-36.133
1620953930.239,12.695,20.020,27.832,16.602,46.875
1620953930.243,-1.953,20.020,25.391,14.648,97.168
1620953930.247,-0.488,19.531,32.227,24.414,60.547
1620953930.251,11.230,16.602,35.645,38.086,11.719
1620953930.265,8.789,17.090,37.109,44.922,14.648
1620953930.269,2.441,20.508,40.527,42.969,39.062
1620953930.273,7.324,22.949,39.551,45.410,24.414
1620953930.277,16.113,23.926,39.551,46.387,13.672
1620953930.281,22.949,20.508,43.457,48.340,15.625
1620953930.285,29.785,26.855,47.363,48.340,2.441
1620953930.289,24.902,29.785,43.945,40.039,57.617
1620953930.292,21.484,27.832,43.945,41.016,73.730
1620953930.296,34.668,29.785,45.898,46.875,42.969
1620953930.300,36.133,26.367,41.992,46.387,18.555
1620953930.304,26.367,20.996,40.039,36.133,-2.441
1620953930.308,22.461,21.484,40.527,20.508,35.156
1620953930.302,19.531,22.461,42.969,23.926,40.527
1620953930.306,26.367,27.344,42.969,31.738,-15.137
1620953930.310,21.484,29.297,38.086,23.438,5.371
1620953930.314,20.508,31.250,35.645,23.438,10.254
1620953930.318,29.785,32.227,36.621,29.785,8.789
1620953930.322,34.668,28.809,31.250,32.715,-3.906
1620953930.326,28.320,25.879,27.832,20.508,-7.812
1620953930.329,21.973,23.926,30.762,18.066,5.371
1620953930.333,21.484,22.461,27.344,23.926,19.531
1620953930.337,22.461,20.020,25.879,15.625,20.996
1620953930.341,21.973,24.902,29.297,6.348,-5.371
1620953930.345,16.602,26.855,23.438,6.836,-6.348
1620953930.358,11.719,24.414,25.391,12.695,32.227
1620953930.362,16.113,24.902,35.156,16.602,61.035
1620953930.366,14.648,25.879,33.691,21.973,29.785
1620953930.370,6.348,26.367,33.203,22.949,23.926
1620953930.374,6.836,27.832,31.738,20.020,41.992
1620953930.378,13.672,29.297,33.691,30.762,39.551
1620953930.382,20.020,36.133,38.086,41.504,69.824
1620953930.385,20.508,40.527,42.969,39.062,73.242
1620953930.389,24.902,41.504,41.016,38.086,5.859
1620953930.393,31.250,37.598,36.621,38.086,-10.742
1620953930.397,27.832,36.133,35.645,34.180,15.137
1620953930.401,23.926,36.133,33.203,23.926,-5.371
1620953930.397,30.762,31.250,32.227,21.484,-24.414
1620953930.401,29.785,28.320,31.738,30.762,9.766
1620953930.405,34.180,27.344,28.809,33.203,-17.578
1620953930.409,32.715,31.738,24.902,32.227,-15.137
1620953930.413,17.090,33.203,26.367,25.879,8.789
1620953930.417,18.066,28.320,30.762,25.391,2.441
1620953930.421,30.273,29.785,31.738,28.809,-23.438
1620953930.424,30.762,38.574,32.227,30.762,-35.645
1620953930.428,20.508,41.504,28.320,27.344,42.480
1620953930.432,20.020,32.715,30.762,14.160,11.719
1620953930.436,18.555,30.273,32.715,18.066,-20.508
1620953930.440,19.043,36.133,28.809,23.438,28.809
1620953930.452,36.621,36.621,31.738,30.273,45.898
1620953930.456,54.199,35.645,34.180,41.992,34.668
1620953930.460,39.551,34.180,37.598,36.133,45.898
1620953930.464,17.090,31.738,39.551,18.066,66.406
1620953930.468,13.672,31.738,37.598,17.090,80.566
1620953930.472,20.508,35.156,41.504,17.578,55.176
1620953930.476,19.531,32.715,42.480,22.949,53.223
1620953930.479,13.672,23.438,37.109,29.785,95.703
1620953930.483,14.648,20.996,41.016,27.832,47.363
1620953930.487,14.160,22.949,43.945,26.855,45.898
1620953930.491,17.090,21.973,41.992,30.273,69.336
1620953930.495,16.113,23.926,40.527,37.109,9.277
1620953930.490,4.395,24.414,39.551,32.715,-10.742
1620953930.494,-2.441,20.020,39.551,26.367,-11.230
1620953930.498,-0.488,18.066,35.645,27.832,-7.812
1620953930.502,16.602,23.926,34.180,37.598,42.480
1620953930.506,20.508,24.902,37.109,39.062,60.059
1620953930.510,17.090,25.879,39.551,26.367,4.395
1620953930.514,19.531,25.391,39.551,22.461,46.387
1620953930.517,18.066,21.484,34.180,31.250,63.965
1620953930.521,21.973,26.367,34.180,35.156,28.809
1620953930.525,25.391,28.809,36.133,27.344,61.035
1620953930.529,22.949,27.344,32.227,23.926,23.438
1620953930.533,32.715,29.785,30.273,20.508,-9.277
1620953930.546,30.273,32.715,33.691,28.320,25.879
1620953930.550,20.020,33.203,35.645,29.785,27.344
1620953930.554,16.113,31.738,31.738,16.602,0.488
1620953930.558,17.090,32.715,32.227,25.879,-26.855
1620953930.562,30.762,36.621,33.203,39.062,-33.203
1620953930.566,30.273,38.086,29.785,32.227,-5.859
1620953930.570,26.367,36.621,30.762,23.438,61.523
1620953930.573,21.484,30.273,32.227,21.484,66.406
1620953930.577,30.273,27.344,30.762,27.344,17.090
1620953930.581,39.551,29.785,28.809,35.156,0.977
1620953930.585,27.344,31.738,35.156,29.785,26.367
1620953930.589,19.531,33.691,34.180,26.367,1.953
1620953930.583,20.508,33.203,33.691,37.598,1.953
1620953930.587,23.926,25.391,36.133,48.828,16.602
1620953930.591,23.438,22.949,33.691,48.828,-12.695
1620953930.595,20.996,35.156,38.574,44.922,32.227
1620953930.599,20.020,31.738,37.598,41.992,41.016
1620953930.603,23.926,26.367,34.668,43.945,13.184
1620953930.607,28.320,33.203,35.156,42.969,-23.926
1620953930.610,31.738,40.039,36.621,32.715,-5.371
1620953930.614,20.020,38.574,33.203,26.855,59.570
1620953930.618,27.832,30.273,34.180,49.805,73.242
1620953930.622,42.480,33.691,33.203,61.035,23.926
1620953930.626,17.090,38.086,25.391,24.414,32.715
1620953930.640,-0.977,37.598,24.902,1.953,39.062
1620953930.644,9.277,37.598,23.438,16.113,46.875
1620953930.648,20.996,35.645,23.926,31.250,19.043
1620953930.652,26.855,42.969,26.855,29.785,-31.250
1620953930.656,26.367,49.805,22.461,20.508,-11.719
1620953930.660,12.695,39.062,17.090,13.672,31.738
1620953930.664,17.090,31.738,14.160,10.254,11.719
1620953930.667,26.855,35.645,14.160,13.184,-22.949
1620953930.671,23.926,44.922,14.648,13.184,21.484
1620953930.675,30.273,41.504,15.137,1.465,30.273
1620953930.679,34.180,34.668,20.508,7.812,-12.695
1620953930.683,30.762,38.086,23.438,18.555,17.578
1620953930.678,29.785,38.086,25.391,15.625,84.473
1620953930.682,25.879,30.762,22.461,14.648,64.453
1620953930.686,39.551,34.668,20.508,30.762,32.227
1620953930.690,50.781,44.922,28.320,41.504,25.879
1620953930.694,34.668,36.621,28.320,38.086,46.387
1620953930.698,28.320,29.785,21.973,31.738,49.805
1620953930.702,26.367,36.133,18.066,32.715,24.902
1620953930.705,20.020,37.109,20.996,42.969,42.480
1620953930.709,17.090,41.504,22.461,40.527,14.648
1620953930.713,16.113,39.062,25.879,27.344,-2.930
1620953930.717,19.043,31.250,33.691,27.832,55.664
1620953930.721,20.996,30.273,32.715,36.621,52.246
1620953930.733,14.160,33.691,28.320,34.180,47.852
1620953930.737,15.625,33.691,29.785,29.785,93.262
1620953930.741,24.414,35.156,24.902,23.438,94.727
1620953930.745,20.996,37.109,20.996,29.785,41.504
1620953930.749,14.160,36.621,25.391,43.945,38.086
1620953930.753,18.066,40.527,27.344,39.551,39.062
1620953930.757,22.949,41.992,23.926,29.785,41.504
1620953930.760,26.367,35.156,18.555,32.227,40.527
1620953930.764,31.738,27.344,17.090,37.109,-10.254
1620953930.768,35.645,33.691,19.043,28.320,-68.359
1620953930.772,43.457,41.504,17.090,27.344,-16.602
1620953930.776,42.480,38.574,23.926,32.227,26.367
1620953930.772,21.484,39.551,24.902,18.066,2.441
1620953930.776,5.859,36.133,18.555,2.441,52.734
1620953930.780,11.719,30.762,24.414,0.000,71.777
1620953930.784,19.531,28.320,26.855,4.395,20.508
1620953930.788,19.043,26.855,34.180,11.230,-0.488
1620953930.792,6.836,22.949,45.410,17.090,41.992
1620953930.796,8.789,19.531,42.480,14.648,19.043
1620953930.799,20.996,23.438,45.410,18.555,13.184
1620953930.803,23.438,26.855,49.316,29.785,16.602
1620953930.807,38.086,27.832,47.852,41.992,22.949
1620953930.811,31.250,25.879,44.434,38.574,19.531
1620953930.815,10.742,26.855,38.574,33.203,-50.781
1620953930.827,4.395,29.297,41.016,45.898,-21.484
1620953930.831,4.395,23.438,43.945,51.758,32.715
1620953930.835,10.254,16.602,41.504,42.480,33.691
1620953930.839,18.066,22.949,45.410,35.156,29.785
1620953930.843,24.902,25.391,40.527,39.062,39.062
1620953930.847,20.996,21.973,29.297,36.621,73.242
1620953930.851,12.207,22.461,30.762,34.180,50.293
1620953930.854,18.555,24.414,32.715,27.832,-15.137
1620953930.858,23.438,22.949,34.668,24.414,-20.996
1620953930.862,23.926,23.438,31.250,30.762,4.883
1620953930.866,37.109,33.691,30.273,35.156,4.883
1620953930.870,39.062,35.156,28.809,20.508,38.574
1620953930.865,22.949,31.250,25.879,10.742,59.082
1620953930.869,27.832,28.809,24.414,20.020,39.062
1620953930.873,36.621,27.344,25.879,28.320,44.922
1620953930.877,36.621,37.109,27.832,33.203,43.457
1620953930.881,31.738,38.086,28.809,25.879,56.641
1620953930.885,32.715,34.180,25.879,20.996,74.707
1620953930.889,40.039,32.715,27.832,27.832,41.504
1620953930.892,52.246,24.902,34.668,54.688,0.000
1620953930.896,61.523,40.527,29.785,63.965,37.109
1620953930.900,54.199,50.781,22.461,43.945,2.930
1620953930.904,54.199,48.828,19.043,40.039,-22.949
1620953930.908,47.852,46.875,13.672,40.527,40.039
1620953930.921,32.715,39.551,16.113,36.621,40.039
1620953930.925,30.273,48.340,20.508,32.227,34.180
1620953930.929,26.367,50.781,15.625,29.785,48.828
1620953930.933,20.508,52.246,10.254,27.344,24.414
1620953930.937,13.184,62.012,4.395,15.625,19.043
1620953930.941,9.277,63.477,-1.465,5.859,30.762
1620953930.945,20.996,62.988,-2.930,10.254,23.438
1620953930.948,32.227,69.824,-3.906,11.230,57.617
1620953930.952,31.250,75.684,-6.348,-3.418,62.500
1620953930.956,27.832,77.148,-8.789,-2.441,44.434
1620953930.960,40.527,69.336,-8.301,12.207,18.555
1620953930.964,50.293,59.082,0.000,16.113,50.781
1620953930.978,42.480,59.570,4.395,17.578,40.039
1620953930.982,31.250,62.988,6.348,16.113,-33.203
1620953930.986,32.715,59.082,6.348,17.090,14.648
1620953930.990,48.828,55.664,0.977,18.066,29.785
1620953930.994,48.828,54.688,-0.488,14.648,39.551
1620953930.998,49.805,57.129,-1.953,15.625,82.520
1620953931.002,48.340,59.082,1.953,20.020,32.227
1620953931.005,43.945,56.152,9.277,22.461,-40.527
1620953931.009,47.852,52.734,18.066,19.043,-32.715
1620953931.013,44.922,51.270,19.043,8.301,40.039
1620953931.017,40.039,49.805,13.672,6.836,45.410
1620953931.021,41.016,43.945,16.602,20.508,20.996
1620953931.015,48.828,44.434,20.996,35.645,28.809
1620953931.019,42.969,42.480,20.996,35.645,-0.488
1620953931.023,37.109,41.016,23.438,39.551,19.531
1620953931.027,46.387,46.387,30.273,53.711,7.324
1620953931.031,58.594,44.922,34.668,62.012,16.113
1620953931.035,39.551,42.480,33.203,56.641,23.926
1620953931.039,32.715,41.016,30.762,41.992,27.832
1620953931.042,43.457,41.504,32.227,42.480,9.277
1620953931.046,37.598,41.992,27.832,51.270,18.555
1620953931.050,35.645,38.574,20.996,46.387,14.160
1620953931.054,24.902,34.180,25.879,39.551,17.578
1620953931.058,19.531,36.133,26.367,38.086,53.223
1620953931.060,20.996,35.645,23.926,34.668,5.371
1620953931.064,13.184,37.598,19.043,27.344,24.414
1620953931.068,19.531,30.762,16.113,27.344,9.277
1620953931.072,28.320,32.227,16.113,27.832,-8.789
1620953931.076,27.344,35.645,19.531,18.066,-6.836
1620953931.079,24.902,32.227,21.973,14.648,49.805
1620953931.083,26.367,34.180,20.020,18.555,102.051
1620953931.087,33.691,35.156,16.113,15.625,80.078
1620953931.091,39.062,35.645,14.648,13.184,11.230
1620953931.095,25.391,33.691,17.090,11.230,47.852
1620953931.108,19.043,31.250,17.578,12.695,82.031
1620953931.112,21.973,31.250,20.508,24.414,97.656
1620953931.116,22.949,33.691,25.391,28.809,118.164
1620953931.120,20.020,37.598,31.250,23.926,51.270
1620953931.124,20.020,33.691,30.273,34.180,15.137
1620953931.128,28.320,32.715,26.367,51.270,-4.883
1620953931.132,28.809,33.203,26.367,48.828,0.488
1620953931.135,36.621,27.832,29.785,40.527,7.324
1620953931.139,30.762,28.320,34.180,36.133,-4.395
1620953931.143,20.996,28.320,34.668,41.016,56.641
1620953931.147,32.227,27.832,37.598,48.340,74.707
1620953931.151,36.133,30.762,36.621,40.039,-10.254
1620953931.146,23.926,31.250,37.109,31.250,11.230
1620953931.150,13.184,29.785,37.598,28.809,41.016
1620953931.154,14.648,33.691,36.621,35.645,16.113
1620953931.158,14.160,32.715,38.086,32.715,45.898
1620953931.162,19.043,37.598,43.457,16.602,39.062
1620953931.166,23.438,39.062,43.457,14.160,-6.836
1620953931.170,25.391,27.344,35.156,11.719,-8.789
1620953931.173,27.832,29.785,37.109,10.742,-25.879
1620953931.177,28.809,32.715,34.668,11.230,0.000
1620953931.181,25.391,32.227,35.645,17.578,0.488
1620953931.185,21.484,34.180,36.621,25.879,0.000
1620953931.189,30.273,34.668,28.320,31.250,46.387
1620953931.202,29.785,32.715,26.855,31.250,72.754
1620953931.206,20.020,29.297,28.320,20.508,43.457
1620953931.210,20.020,28.320,26.367,22.461,2.441
1620953931.214,22.461,33.691,25.391,28.809,-3.418
1620953931.218,18.555,35.645,27.344,22.949,15.137
1620953931.222,19.043,34.180,20.508,28.809,30.762
1620953931.226,27.832,30.273,14.160,30.762,18.555
1620953931.229,28.809,24.902,25.391,32.715,-26.855
1620953931.233,30.273,26.367,24.414,35.645,-30.273
1620953931.237,38.086,32.227,27.344,32.227,-21.484
1620953931.241,34.180,32.715,35.645,28.320,-4.395
1620953931.245,41.016,27.832,31.250,35.156,36.621
1620953931.241,32.715,23.438,30.762,43.457,71.289
1620953931.245,15.137,25.879,29.785,29.785,57.617
1620953931.249,22.461,32.227,27.344,26.855,50.781
1620953931.253,25.391,27.344,30.762,34.668,64.941
1620953931.257,26.367,23.438,29.785,36.133,56.152
1620953931.261,26.855,29.297,23.926,30.762,38.574
1620953931.265,24.414,28.320,23.438,16.113,10.742
1620953931.268,26.367,23.438,20.508,14.160,3.418
1620953931.272,25.391,18.555,20.996,19.531,48.340
1620953931.276,17.578,18.555,25.879,16.602,90.332
1620953931.280,9.766,24.414,29.297,17.578,54.199
1620953931.284,10.254,23.926,28.320,17.578,8.789
1620953931.296,21.973,29.297,24.902,15.625,-27.832
1620953931.300,29.785,34.180,27.344,20.020,10.742
1620953931.304,19.531,33.691,22.461,13.184,32.715
1620953931.308,21.484,35.645,15.625,20.020,32.715
1620953931.312,32.715,34.668,21.973,30.762,27.344
1620953931.316,32.715,31.250,26.367,32.227,-10.742
1620953931.320,32.227,30.273,27.344,29.785,47.363
1620953931.323,21.973,30.762,27.832,23.926,123.535
1620953931.327,11.230,29.785,27.832,32.227,56.641
1620953931.331,19.043,29.297,30.762,38.086,22.949
1620953931.335,15.625,28.809,29.785,27.344,51.270
1620953931.339,10.742,27.344,27.344,23.926,33.691
1620953931.352,10.742,25.879,26.855,31.250,0.000
1620953931.356,16.113,29.297,25.391,37.109,2.441
1620953931.360,23.926,33.203,27.832,41.992,62.500
1620953931.364,21.484,36.133,30.762,32.227,90.332
1620953931.368,17.090,26.367,30.762,25.391,83.984
1620953931.372,25.391,25.391,35.645,34.180,50.781
1620953931.376,31.250,29.297,41.504,34.180,21.484
1620953931.379,23.438,24.902,40.039,16.113,37.109
1620953931.383,20.020,28.320,39.062,15.137,41.992
1620953931.387,23.926,31.738,32.227,22.461,16.602
1620953931.391,22.461,30.762,30.762,21.484,31.738
1620953931.395,14.160,37.109,37.598,18.555,15.625
1620953931.390,15.137,34.180,37.598,15.137,-5.371
1620953931.394,28.809,32.715,33.691,22.461,34.180
1620953931.398,35.156,38.574,34.668,30.762,34.180
1620953931.402,27.344,39.062,37.109,33.691,-36.133
1620953931.406,27.832,34.180,34.668,30.762,-39.062
1620953931.410,29.297,32.715,37.109,36.621,-3.906
1620953931.414,36.133,31.738,38.086,44.434,14.160
1620953931.417,43.457,29.785,37.598,43.457,-26.855
1620953931.421,27.832,27.832,37.109,31.738,-16.113
1620953931.425,17.578,32.715,35.156,27.832,17.090
1620953931.429,23.926,33.691,41.504,34.180,14.648
1620953931.433,30.762,34.180,40.527,34.668,33.203
1620953931.427,17.578,39.062,37.109,27.832,-9.766
1620953931.431,6.836,29.785,40.527,25.391,15.625
1620953931.435,11.719,27.344,42.480,30.273,39.551
1620953931.439,19.043,34.668,41.992,30.762,-8.301
1620953931.443,21.973,31.250,40.527,18.555,-3.418
1620953931.447,11.719,31.250,43.457,13.672,27.344
1620953931.451,13.184,34.668,45.898,23.438,53.711
1620953931.454,20.020,35.156,40.527,29.297,95.703
1620953931.458,25.391,39.551,37.109,28.809,20.020
1620953931.462,26.855,39.062,42.969,24.414,-39.551
1620953931.466,14.648,37.109,42.969,26.855,40.527
1620953931.470,16.602,41.504,48.828,35.156,30.273
1620953931.483,21.973,35.645,46.875,36.621,5.371
1620953931.487,16.113,29.297,32.227,26.367,12.207
1620953931.491,21.973,35.645,36.133,17.578,25.879
1620953931.495,21.973,31.250,42.480,18.555,42.480
1620953931.499,16.113,20.996,41.992,21.973,55.664
1620953931.503,10.742,24.414,38.574,21.484,58.594
1620953931.507,13.672,31.738,32.715,20.508,2.441
1620953931.510,28.320,30.762,29.785,37.598,-5.859
1620953931.514,25.879,27.832,32.715,39.062,-8.301
1620953931.518,4.883,24.902,39.062,18.066,-33.203
1620953931.522,-1.465,23.926,38.574,16.113,-20.508
1620953931.526,11.230,25.391,42.969,20.996,-18.555
1620953931.522,12.207,24.902,48.340,25.391,19.043
1620953931.526,17.578,30.762,44.434,30.762,38.086
1620953931.530,35.645,29.785,45.410,27.832,36.621
1620953931.534,38.086,26.855,46.387,33.203,43.457
1620953931.538,30.273,28.809,46.875,41.504,39.062
1620953931.542,29.297,30.273,51.270,40.039,67.871
1620953931.546,25.879,30.273,47.363,28.320,61.523
1620953931.549,19.043,27.344,41.016,21.484,-4.395
1620953931.553,22.461,24.414,43.945,29.785,2.930
1620953931.557,36.133,25.879,41.992,39.062,17.090
1620953931.561,37.109,28.320,35.645,30.273,51.270
1620953931.565,30.273,28.320,35.156,22.461,0.488
1620953931.577,30.762,29.785,36.621,37.109,-25.391
1620953931.581,22.461,30.273,35.645,39.551,9.766
1620953931.585,11.719,26.855,33.691,28.320,-6.836
1620953931.589,9.277,25.879,34.668,25.879,15.625
1620953931.593,16.602,29.297,33.691,35.645,-4.883
1620953931.597,34.668,27.832,36.133,46.875,-51.758
1620953931.601,39.062,25.879,36.621,52.246,-0.488
1620953931.604,30.762,28.809,34.180,41.504,13.672
1620953931.608,30.762,31.738,36.133,37.598,-18.066
1620953931.612,31.250,30.762,38.086,46.387,6.836
1620953931.616,35.645,28.809,35.156,41.504,52.734
1620953931.620,36.621,26.367,34.668,41.992,67.871
1620953931.615,35.156,25.391,35.645,29.785,58.105
1620953931.619,37.109,27.832,33.691,21.973,62.988
1620953931.623,47.852,30.273,30.762,30.762,72.754
1620953931.627,43.945,30.273,31.738,22.949,17.578
1620953931.631,31.738,30.762,30.762,16.602,-1.465
1620953931.635,36.133,37.109,23.926,20.020,31.250
1620953931.639,36.621,38.574,20.508,21.484,27.832
1620953931.642,38.086,36.133,21.973,16.602,42.480
1620953931.646,37.109,38.574,20.996,12.207,14.648
1620953931.650,17.090,39.062,21.973,10.254,0.488
1620953931.654,3.418,31.250,20.996,7.812,52.734
1620953931.658,11.230,28.809,23.926,14.648,96.191
1620953931.671,11.719,26.855,27.832,17.090,116.211
1620953931.675,0.488,22.461,28.809,21.484,91.797
1620953931.679,12.207,24.414,36.133,33.691,11.719
1620953931.683,25.879,31.250,34.180,41.016,-4.883
1620953931.687,39.551,38.086,21.973,57.617,37.598
1620953931.691,50.293,31.250,26.367,62.500,51.270
1620953931.695,19.043,17.578,35.645,33.203,23.926
1620953931.698,3.418,16.113,32.715,19.531,38.086
1620953931.702,11.230,16.602,32.715,30.762,61.523
1620953931.706,4.395,20.020,37.598,30.762,14.648
1620953931.710,0.977,24.902,33.203,24.414,6.836
1620953931.714,8.301,20.996,30.762,29.785,6.836
1620953931.709,16.602,20.020,32.227,39.062,-12.207
1620953931.713,22.949,24.414,28.320,32.227,-16.602
1620953931.717,24.414,25.879,30.762,21.973,0.000
1620953931.721,24.902,21.484,31.738,23.926,54.199
1620953931.725,32.227,25.879,24.414,27.832,53.223
1620953931.729,23.438,30.273,18.555,23.438,-6.348
1620953931.733,15.625,28.809,21.484,20.508,-33.691
1620953931.736,25.391,26.367,21.484,21.973,-18.066
1620953931.740,24.902,23.438,21.484,19.531,-16.113
1620953931.744,22.949,28.320,22.461,11.230,-37.598
1620953931.748,22.949,30.762,26.855,5.371,23.926
1620953931.752,13.672,27.832,31.738,9.766,-6.348
1620953931.765,8.301,26.367,30.273,13.184,-25.391
1620953931.769,5.371,26.367,33.203,12.695,15.137
1620953931.773,4.395,26.367,35.645,15.625,-2.441
1620953931.777,2.930,19.531,32.227,22.949,30.762
1620953931.781,7.812,19.531,29.785,36.133,58.105
1620953931.785,10.742,26.855,32.715,43.457,-8.789
1620953931.789,10.254,24.414,36.133,34.668,-62.012
1620953931.792,12.695,22.949,40.039,33.691,-31.250
1620953931.796,14.648,21.973,39.062,49.805,0.977
1620953931.800,23.926,20.996,39.062,46.387,73.242
1620953931.804,25.391,22.949,38.574,27.344,91.797
1620953931.808,26.367,25.391,29.297,24.902,84.961
1620953931.803,30.273,25.879,25.879,34.668,86.426
1620953931.807,32.715,34.180,27.832,37.598,40.039
1620953931.811,25.391,32.715,19.531,27.832,25.879
1620953931.815,11.719,24.902,18.555,23.438,64.453
1620953931.819,10.254,25.391,22.949,20.020,70.801
1620953931.823,10.742,22.461,24.414,22.949,41.504
1620953931.827,4.395,27.344,25.391,21.484,38.086
1620953931.830,-6.348,34.668,25.879,10.254,26.367
1620953931.834,0.000,32.715,27.832,9.277,34.180
1620953931.838,16.113,35.645,29.297,18.555,127.930
1620953931.842,20.996,39.551,29.297,17.090,80.078
1620953931.846,25.879,37.109,27.344,5.371,18.555
1620953931.860,29.297,38.086,28.809,4.395,105.957
1620953931.864,33.691,30.762,32.227,11.230,79.102
1620953931.868,29.297,28.320,31.250,13.672,18.066
1620953931.872,12.695,37.598,26.367,6.836,40.039
1620953931.876,10.742,41.016,25.879,6.348,19.531
1620953931.880,19.043,40.527,27.344,17.090,-10.254
1620953931.884,22.461,37.598,26.367,26.367,-18.066
1620953931.887,29.297,37.598,21.973,28.320,-16.602
1620953931.891,24.414,41.992,21.484,28.809,-13.184
1620953931.895,17.090,38.086,24.902,27.832,-13.184
1620953931.899,34.180,29.785,29.785,37.109,-10.254
1620953931.903,33.691,32.227,30.273,43.457,36.621
1620953931.897,15.625,31.250,29.297,34.668,27.832
1620953931.901,16.602,30.273,29.297,29.785,-30.273
1620953931.905,26.367,39.062,25.879,38.574,20.508
1620953931.909,23.438,38.086,26.367,41.504,13.672
1620953931.913,17.090,32.715,28.320,27.832,-24.414
1620953931.917,15.137,37.109,23.926,27.832,-9.277
1620953931.921,11.719,36.133,24.414,32.715,-3.906
1620953931.924,15.137,35.156,30.273,30.273,-4.883
1620953931.928,14.160,37.109,29.297,30.273,61.035
1620953931.932,14.648,36.621,28.320,27.344,57.617
1620953931.936,16.602,29.785,28.809,23.926,-48.828
1620953931.940,12.207,22.461,33.203,25.879,-29.297
1620953931.952,9.766,25.391,37.598,23.926,64.941
1620953931.956,9.766,34.180,33.691,18.066,98.145
1620953931.960,25.391,28.809,32.715,22.461,78.613
1620953931.964,37.109,29.297,33.691,29.785,85.938
1620953931.968,28.809,41.016,32.227,26.855,31.250
1620953931.972,21.484,39.551,27.832,20.508,22.949
1620953931.976,21.484,38.086,27.832,25.391,55.176
1620953931.979,25.879,35.156,36.621,39.551,14.160
1620953931.983,31.250,37.598,38.574,42.480,-5.371
1620953931.987,38.574,38.086,38.086,34.180,-7.812
1620953931.991,33.691,31.738,41.016,30.273,11.230
1620953931.995,34.668,34.180,44.434,40.039,52.246
1620953931.990,39.062,32.227,43.457,44.922,27.344
1620953931.994,30.762,29.785,41.992,40.039,0.977
1620953931.998,21.973,30.273,40.039,33.203,20.020
1620953932.002,22.461,25.879,35.645,31.250,16.602
1620953932.006,19.531,24.902,32.227,30.762,-8.789
1620953932.010,6.348,28.320,30.273,19.531,18.066
1620953932.014,14.160,34.668,25.391,21.484,4.395
1620953932.017,34.180,33.203,23.926,43.457,29.785
1620953932.021,18.555,24.414,31.738,33.203,52.734
1620953932.025,0.488,27.344,33.203,5.859,22.949
1620953932.029,-11.719,18.555,31.738,4.883,63.477
1620953932.033,-25.879,8.789,34.668,13.672,29.785
1620953932.046,-19.531,16.113,41.504,21.973,22.461
1620953932.050,-21.973,13.184,41.992,12.207,23.438
1620953932.054,-23.438,8.301,39.062,0.000,-6.348
1620953932.058,-16.602,13.672,35.645,0.000,36.621
1620953932.062,0.977,20.508,38.574,9.766,56.641
1620953932.066,16.602,27.344,41.504,21.973,113.281
1620953932.070,17.578,27.832,37.109,5.371,156.738
1620953932.073,16.113,24.902,34.668,2.441,65.430
1620953932.077,17.090,26.855,39.551,13.672,34.180
1620953932.081,24.902,23.926,34.668,9.277,48.340
1620953932.085,30.273,28.809,26.367,11.230,29.297
1620953932.089,33.203,32.715,31.738,17.090,42.969
1620953932.085,39.062,24.902,35.645,22.461,39.062
1620953932.089,38.086,23.438,34.180,37.109,17.090
1620953932.093,36.621,33.203,38.086,37.598,-6.348
1620953932.097,28.809,37.109,30.762,22.949,10.742
1620953932.101,24.902,40.039,25.879,24.414,22.461
1620953932.105,27.832,39.062,29.785,32.227,36.133
1620953932.109,22.949,30.762,28.320,32.715,27.344
1620953932.112,6.836,25.391,30.762,26.367,30.762
1620953932.116,-9.766,19.531,33.203,23.926,-14.648
1620953932.120,-5.371,13.672,36.133,26.855,-22.949
1620953932.124,1.465,19.531,34.180,30.762,-6.348
1620953932.128,5.371,26.367,29.297,37.598,4.395
1620953932.140,9.277,22.461,29.297,36.621,-20.508
1620953932.144,19.043,21.484,32.715,41.504,-28.320
1620953932.148,33.203,21.484,30.273,48.340,-22.461
1620953932.152,37.598,22.461,31.250,40.527,-48.340
1620953932.156,36.621,22.461,34.668,28.320,7.812
1620953932.160,38.574,23.438,32.227,24.414,21.484
1620953932.164,49.805,29.785,31.738,26.855,21.973
1620953932.167,41.992,32.227,31.250,22.461,16.113
1620953932.171,26.367,34.180,30.762,18.555,21.973
1620953932.175,29.297,37.109,28.809,23.438,54.688
1620953932.179,25.879,33.203,29.785,27.344,44.922
1620953932.183,29.297,29.297,27.344,35.645,57.129
1620953932.177,32.715,30.273,19.043,37.109,71.289
1620953932.181,27.832,37.109,14.160,23.438,20.996
1620953932.185,29.785,40.039,16.602,25.879,33.691
1620953932.189,36.621,41.016,21.484,40.039,76.660
1620953932.193,33.203,36.133,19.531,32.715,71.777
1620953932.197,20.996,32.227,21.973,20.996,-0.977
1620953932.201,22.949,37.109,23.926,32.715,-20.508
1620953932.204,46.875,35.156,20.020,58.105,17.578
1620953932.208,41.992,35.645,25.391,45.410,41.992
1620953932.212,12.695,26.855,29.297,14.160,44.434
1620953932.216,3.418,20.508,30.273,15.625,14.160
1620953932.220,5.859,28.809,35.645,20.020,51.270
1620953932.233,6.836,23.438,39.062,14.648,1.465
1620953932.237,1.465,23.438,42.969,4.395,-10.254
1620953932.241,-2.441,26.855,43.945,1.953,-9.277
1620953932.245,4.883,21.484,41.504,11.719,-12.695
1620953932.249,22.949,19.531,41.992,17.578,87.891
1620953932.253,29.297,21.973,39.551,18.555,61.523
1620953932.257,20.020,24.414,40.039,19.043,48.828
1620953932.260,11.230,27.344,39.551,26.367,64.453
1620953932.264,14.648,26.367,35.156,33.203,15.625
1620953932.268,17.578,25.391,33.203,28.809,61.035
1620953932.272,16.113,27.344,35.645,19.043,87.891
1620953932.276,19.043,29.297,35.156,22.461,63.477
1620953932.273,31.738,34.668,32.715,31.738,44.434
1620953932.277,37.598,30.762,35.156,32.227,81.055
1620953932.281,19.531,25.879,31.738,26.367,43.457
1620953932.285,0.000,29.785,26.855,21.973,-0.977
1620953932.289,5.371,28.809,24.414,31.738,41.992
1620953932.293,15.137,29.297,27.832,39.062,37.598
1620953932.297,8.301,34.668,29.785,32.227,-13.672
1620953932.300,11.230,40.527,24.902,31.738,-35.645
1620953932.304,14.648,36.621,27.832,33.691,39.062
1620953932.308,28.809,34.180,32.715,33.203,47.363
1620953932.312,43.457,41.504,33.203,25.879,21.484
1620953932.316,32.227,37.109,29.297,13.672,42.480
1620953932.327,19.531,31.250,26.367,20.996,30.273
1620953932.331,18.555,31.738,28.809,23.438,-27.832
1620953932.335,20.020,28.809,27.344,19.531,-5.859
1620953932.339,13.184,27.344,30.273,19.043,20.508
1620953932.343,12.207,24.414,35.156,20.508,19.531
1620953932.347,19.043,23.926,34.668,26.367,84.961
1620953932.351,17.090,28.809,37.109,24.902,34.180
1620953932.354,4.395,31.250,41.016,15.137,-57.129
1620953932.358,3.906,34.180,42.480,13.672,22.949
1620953932.362,18.066,39.062,37.109,22.461,46.387
1620953932.366,13.672,40.527,41.016,28.809,35.156
1620953932.370,5.859,40.527,47.363,20.508,79.590
1620953932.366,16.113,38.574,40.039,12.207,79.102
1620953932.370,21.484,38.086,38.086,27.344,13.184
1620953932.374,17.578,38.574,38.086,36.133,-15.625
1620953932.378,12.207,40.039,36.621,34.180,10.254
1620953932.382,8.301,36.621,36.133,27.344,-21.973
1620953932.386,15.625,27.832,39.062,27.344,-14.160
1620953932.390,25.879,27.344,38.086,35.156,24.902
1620953932.393,20.508,32.715,32.715,32.227,19.531
1620953932.397,20.996,32.227,33.691,35.645,14.648
1620953932.401,25.391,31.250,38.086,34.180,36.133
1620953932.405,33.203,33.691,40.039,39.062,-31.250
1620953932.409,43.945,34.180,39.551,44.434,-2.441
1620953932.421,41.016,32.715,42.969,34.668,24.902
1620953932.425,35.645,31.738,40.039,28.320,-8.301
1620953932.429,33.203,31.250,37.598,34.668,67.871
1620953932.433,24.902,31.250,43.457,34.668,57.617
1620953932.437,15.137,28.320,41.992,26.367,4.395
1620953932.441,14.648,28.320,40.039,23.438,13.672
1620953932.445,27.344,30.762,36.621,26.855,-22.949
1620953932.448,44.922,31.738,33.203,47.363,-36.621
1620953932.452,18.066,33.691,40.039,38.574,63.477
1620953932.456,-15.625,30.762,34.668,12.207,67.383
1620953932.460,-6.348,27.832,25.879,14.648,-16.113
1620953932.464,0.000,25.879,27.344,15.137,8.789
1620953932.458,1.953,19.531,32.227,13.672,50.781
1620953932.462,-1.465,16.113,35.156,4.883,62.012
1620953932.466,-5.371,17.090,34.180,2.441,29.297
1620953932.470,9.766,20.996,34.180,13.672,-33.691
1620953932.474,20.996,27.344,37.598,20.996,-10.254
1620953932.478,17.090,30.273,34.668,16.113,31.250
1620953932.482,9.277,25.879,33.691,18.555,12.695
1620953932.485,17.578,24.902,36.621,28.320,1.953
1620953932.489,33.203,27.832,33.691,36.133,25.879
1620953932.493,29.297,25.391,30.762,32.715,8.301
1620953932.497,30.273,20.508,28.320,29.297,17.090
1620953932.501,42.480,26.367,30.762,36.621,39.551
1620953932.515,37.598,36.133,32.227,37.598,64.941
1620953932.519,24.414,35.645,33.203,32.227,77.148
1620953932.523,30.762,36.621,31.738,26.367,45.410
1620953932.527,34.668,33.691,27.832,20.996,63.477
1620953932.531,30.273,34.180,22.949,23.438,51.758
1620953932.535,35.645,33.203,18.066,29.297,100.098
1620953932.539,26.367,23.438,19.043,20.996,81.055
1620953932.542,23.438,27.832,16.602,16.113,-39.062
1620953932.546,31.738,31.738,17.090,21.484,12.207
1620953932.550,35.156,31.738,23.926,22.949,48.828
1620953932.554,29.297,30.762,26.367,22.461,42.480
1620953932.558,17.578,30.273,32.227,25.391,83.984
1620953932.552,25.879,32.227,38.086,29.785,74.219
1620953932.556,38.086,30.273,38.574,34.180,72.754
1620953932.560,40.039,25.391,36.621,34.668,76.660
1620953932.564,34.668,30.762,33.691,32.715,-3.906
1620953932.568,33.203,28.809,29.297,38.574,1.465
1620953932.572,35.156,21.973,29.785,46.875,43.945
1620953932.576,33.691,27.344,29.785,40.527,35.156
1620953932.579,22.949,23.926,26.367,25.391,-9.766
1620953932.583,11.719,25.879,30.273,26.855,-11.719
1620953932.587,15.137,34.180,30.762,33.203,32.715
1620953932.591,23.438,32.227,32.227,32.227,10.254
1620953932.595,21.973,33.691,36.133,24.414,-16.113
1620953932.608,22.461,34.180,35.645,19.531,-14.160
1620953932.612,30.273,31.738,33.691,20.996,46.875
1620953932.616,24.414,29.297,35.156,23.926,42.480
1620953932.620,13.672,26.855,31.738,15.137,-13.184
1620953932.624,12.695,26.855,29.297,6.348,5.371
1620953932.628,19.043,28.320,32.715,17.090,50.781
1620953932.632,32.227,30.273,30.762,21.484,83.496
1620953932.635,35.645,29.297,26.855,10.254,31.738
1620953932.639,23.438,29.297,24.902,6.348,42.969
1620953932.643,24.414,25.879,27.344,21.973,9.766
1620953932.647,28.809,24.902,36.621,35.156,-13.672
1620953932.651,29.785,30.762,39.551,33.691,36.133
1620953932.647,23.926,34.668,37.109,33.203,-12.695
1620953932.651,15.137,27.832,33.691,35.645,-29.785
1620953932.655,20.508,22.949,29.785,45.898,-29.785
1620953932.659,28.320,32.227,35.645,47.852,-38.574
1620953932.663,20.020,28.809,33.691,33.691,29.297
1620953932.667,19.531,32.715,32.715,31.250,-6.836
1620953932.671,28.320,37.598,33.691,40.527,-40.039
1620953932.674,49.805,33.691,22.949,53.711,47.852
1620953932.678,46.387,31.250,20.508,43.945,83.008
1620953932.682,12.207,26.367,22.461,20.996,28.809
1620953932.686,0.000,21.973,25.391,14.648,-38.086
1620953932.690,-4.395,22.949,24.902,5.371,-33.691
1620953932.702,6.836,21.484,22.461,8.789,-18.555
1620953932.706,12.695,15.137,26.367,11.719,-15.137
1620953932.710,0.000,14.160,28.320,3.906,42.480
1620953932.714,-1.953,18.066,28.320,9.277,23.438
1620953932.718,11.230,13.184,32.227,10.742,9.766
1620953932.722,8.789,9.277,32.227,2.441,38.086
1620953932.726,8.789,11.719,32.715,8.301,83.008
1620953932.729,22.461,15.625,32.715,22.461,96.680
1620953932.733,20.020,22.461,33.691,33.691,9.277
1620953932.737,9.766,23.926,31.738,20.508,-15.137
1620953932.741,13.672,22.949,31.738,11.719,50.293
1620953932.745,15.625,20.996,33.691,21.973,38.574
1620953932.740,12.695,19.531,26.855,28.809,32.715
1620953932.744,14.160,20.020,32.227,27.832,33.691
1620953932.748,8.301,20.020,37.598,19.043,44.434
1620953932.752,11.719,19.043,35.156,24.414,87.891
1620953932.756,16.113,24.902,37.598,36.133,61.035
1620953932.760,0.488,21.973,40.527,29.297,67.871
1620953932.764,-11.230,15.137,38.574,19.531,66.895
1620953932.767,-8.789,20.996,35.645,21.973,61.035
1620953932.771,0.977,23.438,32.715,21.973,42.969
1620953932.775,17.090,24.902,29.785,20.020,5.371
1620953932.779,25.879,30.273,24.902,21.484,14.648
1620953932.783,13.184,28.320,23.926,19.043,35.645
1620953932.796,10.742,29.297,25.879,20.996,31.250
1620953932.800,25.879,35.156,26.855,20.996,3.418
1620953932.804,28.809,35.156,26.367,21.484,-0.488
1620953932.808,22.461,29.785,24.902,25.879,51.270
1620953932.812,24.414,19.531,22.949,27.344,61.523
1620953932.816,26.367,17.578,18.555,28.320,17.090
1620953932.820,21.484,26.367,21.973,22.461,14.160
1620953932.823,19.531,23.926,28.320,18.066,55.176
1620953932.827,22.949,21.484,26.367,19.531,3.418
1620953932.831,31.738,28.320,23.926,24.902,-37.109
1620953932.835,35.645,33.203,29.297,33.691,-4.395
1620953932.839,26.855,30.762,27.832,29.785,-12.207
1620953932.833,13.672,22.461,25.391,24.902,-20.996
1620953932.837,14.160,20.996,26.367,33.691,-9.277
1620953932.841,21.973,26.855,24.414,37.598,93.750
1620953932.845,22.461,29.297,37.598,41.016,71.289
1620953932.849,20.996,29.785,40.527,33.203,2.441
1620953932.853,19.531,28.320,31.250,22.949,64.453
1620953932.857,25.391,19.043,28.320,26.367,53.711
1620953932.860,22.461,20.996,23.438,18.066,33.203
1620953932.864,17.090,29.297,21.973,9.277,87.891
1620953932.868,28.809,31.250,22.461,24.902,59.570
1620953932.872,39.551,30.762,25.391,35.156,50.293
1620953932.876,37.598,30.273,27.344,35.645,23.438
1620953932.890,28.320,30.273,28.809,30.273,21.973
1620953932.894,26.367,26.855,32.715,34.180,55.176
1620953932.898,33.203,29.785,32.227,46.387,13.184
1620953932.902,37.109,35.645,28.809,43.457,34.668
1620953932.906,29.785,31.738,23.438,38.086,13.184
1620953932.910,26.367,28.809,24.414,37.598,-11.230
1620953932.914,16.602,29.785,28.320,38.086,-0.488
1620953932.917,7.812,27.832,24.902,34.668,2.441
1620953932.921,3.418,23.438,23.926,24.414,40.527
1620953932.925,-2.930,26.855,22.461,17.578,32.227
1620953932.929,7.324,26.855,22.461,15.137,71.289
1620953932.933,12.695,22.949,26.855,16.113,105.469
1620953932.928,1.953,29.297,27.832,14.160,86.426
1620953932.932,4.395,34.180,34.180,15.625,58.594
1620953932.936,20.020,35.645,37.109,25.391,37.109
1620953932.940,29.297,30.762,34.668,30.762,69.336
1620953932.944,33.691,27.344,39.551,32.715,68.848
1620953932.948,29.785,30.762,40.039,26.855,37.109
1620953932.952,24.902,24.902,34.668,25.879,8.789
1620953932.955,25.391,27.832,35.645,27.344,16.602
1620953932.959,29.297,30.273,38.574,24.414,40.527
1620953932.963,32.227,27.832,39.551,28.809,63.477
1620953932.967,29.297,32.715,40.527,27.344,84.473
1620953932.971,31.738,31.250,34.668,28.809,-4.395
1620953932.983,32.715,30.273,39.062,40.039,-24.902
1620953932.987,32.715,32.715,39.551,31.738,46.387
1620953932.991,28.320,30.273,35.645,18.555,60.059
1620953932.995,20.020,30.762,35.156,22.461,47.852
1620953932.999,26.855,32.227,38.086,20.996,48.340
1620953933.003,28.320,18.555,42.480,18.066,21.973
1620953933.007,15.137,16.602,35.645,12.207,28.320
1620953933.010,10.254,28.320,35.645,16.113,61.523
1620953933.014,15.625,26.855,35.156,21.484,4.883
1620953933.018,22.949,29.297,34.180,16.602,-34.180
1620953933.022,19.043,28.320,36.133,9.766,15.625
1620953933.026,6.836,24.902,35.156,7.324,20.020
1620953933.021,21.484,27.344,35.645,23.438,18.066
1620953933.025,31.250,31.250,31.250,27.832,-17.090
1620953933.029,28.809,33.203,32.715,18.555,-5.859
1620953933.033,29.785,31.250,38.574,20.020,76.660
1620953933.037,35.645,23.926,37.598,42.480,70.801
1620953933.041,61.035,22.461,40.039,70.801,3.906
1620953933.045,65.918,35.156,37.598,67.871,-29.297
1620953933.048,30.273,39.551,28.809,40.039,5.859
1620953933.052,20.508,41.016,27.344,28.809,27.344
1620953933.056,43.457,44.922,24.414,41.504,31.738
1620953933.060,45.410,51.758,21.484,48.340,-7.324
1620953933.064,35.645,52.246,18.066,33.691,6.836
1620953933.077,31.738,44.922,9.766,29.785,66.406
1620953933.081,33.691,55.664,5.371,35.156,5.371
1620953933.085,36.621,63.965,3.418,26.855,-15.625
1620953933.089,28.809,60.547,-0.977,10.742,17.578
1620953933.093,24.902,59.082,-6.348,-3.418,18.066
1620953933.097,33.203,62.500,-8.789,3.906,-15.137
1620953933.101,29.785,63.965,-8.789,8.789,53.711
1620953933.104,27.832,61.523,-7.812,4.395,97.656
1620953933.108,33.203,60.059,-3.906,12.695,14.648
1620953933.112,35.645,54.199,1.953,21.973,-9.766
1620953933.116,41.504,50.293,12.207,27.832,6.348
1620953933.120,41.016,50.293,15.625,19.531,48.340
1620953933.115,40.527,48.828,13.672,15.137,38.574
1620953933.119,41.992,50.293,13.672,22.949,-16.113
1620953933.123,44.434,53.711,9.766,28.809,-18.555
1620953933.127,47.363,52.246,15.137,31.738,-35.156
1620953933.131,38.574,52.734,21.973,29.297,7.324
1620953933.135,44.434,51.270,22.461,30.762,-12.207
1620953933.139,55.664,46.875,19.531,36.621,-49.316
1620953933.142,49.805,43.945,19.531,36.621,2.441
1620953933.146,30.273,39.062,17.090,32.227,47.363
1620953933.150,25.879,38.086,15.137,31.738,64.453
1620953933.154,36.133,33.691,14.160,46.387,36.621
1620953933.158,40.527,33.691,17.578,51.270,28.809
1620953933.171,47.363,38.574,17.090,41.504,42.480
1620953933.175,43.945,36.621,15.625,42.480,39.062
1620953933.179,34.180,36.621,17.578,51.758,81.543
1620953933.183,42.480,40.039,18.066,51.758,0.000
1620953933.187,48.828,40.527,21.484,44.922,-20.508
1620953933.191,40.039,41.016,24.414,43.945,-29.297
1620953933.195,36.133,38.086,23.926,46.387,-51.758
1620953933.198,38.574,34.668,23.438,43.945,22.461
1620953933.202,35.156,38.574,24.414,36.133,58.594
1620953933.206,31.738,39.062,22.949,28.320,44.922
1620953933.210,29.785,36.133,24.414,30.273,-5.859
1620953933.214,36.133,36.621,27.344,42.480,61.035
1620953933.209,42.969,41.016,29.297,43.945,117.188
1620953933.213,31.250,32.227,28.809,22.949,19.043
1620953933.217,14.648,28.320,29.297,10.254,-37.598
1620953933.221,23.438,35.156,30.762,25.879,12.695
1620953933.225,36.621,35.156,32.715,28.809,30.273
1620953933.229,30.762,35.645,35.645,16.113,2.930
1620953933.233,15.137,34.668,34.668,12.695,27.832
1620953933.236,22.461,33.203,32.227,20.508,48.828
1620953933.240,34.180,33.691,38.574,29.785,31.738
1620953933.244,34.180,37.598,41.016,27.832,22.461
1620953933.248,35.156,35.156,36.133,26.367,6.836
1620953933.252,40.527,30.273,34.180,32.715,-4.395
1620953933.265,48.340,37.598,34.180,44.434,15.625
1620953933.269,47.363,40.527,40.039,42.969,44.922
1620953933.273,38.574,36.621,42.480,32.715,10.254
1620953933.277,34.180,34.180,42.969,31.250,-7.324
1620953933.281,34.180,30.762,43.945,37.598,18.555
1620953933.285,31.250,28.320,39.062,32.715,6.836
1620953933.289,29.297,32.715,36.621,20.508,60.059
1620953933.292,29.785,36.621,38.574,31.250,69.336
1620953933.296,25.879,32.715,32.715,39.551,11.230
1620953933.300,23.438,32.227,34.668,36.621,37.109
1620953933.304,21.973,32.227,39.551,31.738,33.203
1620953933.308,18.066,32.715,27.832,20.996,15.137
1620953933.302,33.203,32.715,28.809,26.855,22.461
1620953933.306,43.457,28.809,35.645,35.156,33.691
1620953933.310,30.273,27.832,32.227,32.227,8.301
1620953933.314,17.578,28.320,32.227,24.414,4.395
1620953933.318,6.836,28.320,36.133,19.043,16.113
1620953933.322,2.930,30.762,31.738,21.484,-4.883
1620953933.326,8.301,28.809,26.367,20.508,-15.625
1620953933.329,5.371,20.508,32.227,13.672,29.785
1620953933.333,3.418,18.066,34.668,20.020,98.633
1620953933.337,18.066,23.926,26.855,38.574,89.355
1620953933.341,28.320,23.438,28.809,44.434,30.762
1620953933.345,26.855,26.855,37.109,35.645,28.809
1620953933.358,33.691,33.691,39.551,34.668,30.762
1620953933.362,38.086,30.273,29.297,36.133,27.344
1620953933.366,35.645,28.809,25.879,40.527,4.395
1620953933.370,25.879,31.738,35.645,38.086,40.039
1620953933.374,31.738,36.133,30.762,33.203,68.848
1620953933.378,63.477,33.691,30.762,53.711,23.926
1620953933.382,53.711,27.344,38.086,49.316,-15.137
1620953933.385,14.648,25.879,39.551,20.996,-8.301
1620953933.389,5.371,22.949,39.062,18.555,4.395
1620953933.393,9.766,20.996,40.039,27.344,43.945
1620953933.397,2.930,20.996,41.504,28.809,25.391
1620953933.401,0.488,20.020,40.527,17.090,23.926
1620953933.396,0.000,21.973,36.133,7.812,30.762
1620953933.400,2.441,29.785,39.551,13.184,28.320
1620953933.404,13.672,29.297,38.574,19.043,63.965
1620953933.408,22.949,20.020,31.250,21.484,15.625
1620953933.412,18.066,15.137,32.227,14.160,1.465
1620953933.416,1.465,20.996,32.715,7.324,24.414
1620953933.420,-5.371,26.367,31.250,19.531,-24.902
1620953933.423,2.441,24.902,34.668,34.668,-25.391
1620953933.427,10.254,24.414,35.156,31.738,33.203
1620953933.431,14.160,22.461,30.273,23.926,15.137
1620953933.435,23.926,26.367,29.297,25.879,-19.043
1620953933.439,36.621,35.645,32.715,37.109,16.602
1620953933.452,37.598,32.227,35.645,35.156,-13.672
1620953933.456,26.855,30.762,37.598,20.996,0.488
1620953933.460,22.949,33.691,27.832,19.043,47.852
1620953933.464,27.832,29.297,21.484,27.832,40.039
1620953933.468,35.645,28.809,31.738,38.574,-4.395
1620953933.472,29.785,21.973,39.062,30.273,-25.391
1620953933.476,21.973,22.461,36.133,35.645,1.465
1620953933.479,24.902,29.297,31.738,47.852,50.781
1620953933.483,29.785,30.762,34.180,47.363,49.805
1620953933.487,24.414,30.762,34.180,43.945,34.180
1620953933.491,15.625,29.785,28.809,32.715,62.988
1620953933.495,20.020,28.809,22.461,30.762,45.898
1620953933.491,38.086,32.715,23.926,30.273,9.277
1620953933.495,27.832,31.250,27.832,26.367,37.109
1620953933.499,8.301,27.832,30.273,28.809,40.039
1620953933.503,10.254,32.715,28.320,24.414,38.574
1620953933.507,24.902,29.297,25.879,17.578,75.684
1620953933.511,22.461,23.438,25.391,12.207,24.902
1620953933.515,0.488,25.391,23.926,1.465,3.906
1620953933.518,7.812,28.320,24.414,6.348,-30.762
1620953933.522,27.344,19.043,26.367,21.973,-13.184
1620953933.526,25.391,20.996,23.438,27.344,51.270
1620953933.530,27.832,32.715,23.438,24.902,34.668
1620953933.534,22.949,35.645,27.832,31.250,79.102
1620953933.546,19.531,31.738,25.879,40.527,103.516
1620953933.550,29.785,28.809,23.926,28.809,32.715
1620953933.554,26.367,29.297,27.344,17.578,-32.227
1620953933.558,23.926,31.250,24.902,21.973,7.812
1620953933.562,24.414,29.297,20.996,21.484,48.828
1620953933.566,29.785,25.391,27.344,30.273,34.668
1620953933.570,34.668,25.879,25.391,29.297,29.297
1620953933.573,28.809,28.320,21.973,20.996,37.109
1620953933.577,38.086,24.414,18.555,41.504,99.609
1620953933.581,48.340,25.879,13.672,62.012,57.617
1620953933.585,24.414,32.227,28.320,50.781,15.625
1620953933.589,0.000,29.297,40.527,23.438,22.461
1620953933.584,0.488,23.926,37.598,15.625,-10.742
1620953933.588,17.090,20.508,41.504,33.691,-15.137
1620953933.592,15.137,16.113,43.457,34.180,16.113
1620953933.596,9.277,14.160,38.574,23.438,21.973
1620953933.600,13.184,18.066,40.039,20.020,73.730
1620953933.604,20.508,19.531,40.527,15.137,52.734
1620953933.608,20.996,20.020,37.109,21.973,-14.160
1620953933.611,16.602,22.461,32.227,23.926,25.879
1620953933.615,21.484,26.367,31.738,17.578,22.949
1620953933.619,22.949,25.879,35.645,27.832,27.832
1620953933.623,30.762,24.902,37.598,38.086,16.113
1620953933.627,40.527,27.832,41.016,35.645,-22.949
1620953933.640,37.109,25.391,45.898,26.367,-10.254
1620953933.644,23.926,25.391,48.828,27.344,11.230
1620953933.648,19.043,24.414,43.945,36.621,11.719
1620953933.652,14.160,19.531,36.133,31.738,4.883
1620953933.656,7.812,20.508,37.598,29.785,-2.930
1620953933.660,12.207,22.949,35.645,35.645,47.363
1620953933.664,23.926,28.809,35.156,43.457,57.617
1620953933.667,24.414,25.879,34.668,47.363,29.785
1620953933.671,19.043,23.438,35.156,40.527,62.500
1620953933.675,17.090,30.273,35.645,37.598,45.410
1620953933.679,17.578,30.762,32.715,41.016,36.133
1620953933.683,26.855,29.297,35.645,41.992,60.547
1620953933.677,30.273,25.391,30.273,34.668,66.406
1620953933.681,28.320,24.414,28.809,17.578,38.086
1620953933.685,26.855,22.461,26.367,13.672,26.367
1620953933.689,33.691,22.461,20.020,23.438,47.852
1620953933.693,34.180,28.809,23.926,18.555,73.730
1620953933.697,28.320,31.250,26.367,12.695,91.309
1620953933.701,25.391,35.156,27.344,14.160,119.141
1620953933.704,29.297,32.715,29.785,17.090,120.117
1620953933.708,28.809,33.203,26.855,21.973,39.551
1620953933.712,17.578,36.621,27.344,20.996,6.348
1620953933.716,14.648,34.180,25.879,15.137,38.086
1620953933.720,27.344,31.250,29.785,23.438,24.902
1620953933.735,27.832,24.902,30.762,28.809,27.344
1620953933.739,18.066,23.926,27.344,25.879,16.113
1620953933.743,16.113,31.738,28.809,23.926,-22.461
1620953933.747,15.625,34.180,26.367,24.902,-39.062
1620953933.751,25.391,33.203,30.273,33.203,23.926
1620953933.755,33.203,32.715,32.227,26.855,-14.160
1620953933.759,22.461,32.715,25.879,19.043,-47.363
1620953933.762,14.648,26.855,30.273,27.344,45.898
1620953933.766,16.602,22.949,35.156,34.668,61.523
1620953933.770,23.438,30.273,35.156,29.785,52.734
1620953933.774,23.926,31.250,38.086,27.832,-8.789
1620953933.778,17.090,32.715,41.504,27.832,3.418
1620953933.772,19.043,33.203,38.086,30.762,30.273
1620953933.776,21.973,28.809,36.621,32.715,-5.371
1620953933.780,22.461,33.203,31.250,19.531,-19.531
1620953933.784,25.391,36.621,31.250,16.602,15.625
1620953933.788,19.531,32.715,36.621,20.020,28.809
1620953933.792,24.414,38.086,30.273,27.344,42.480
1620953933.796,55.176,40.527,22.461,41.504,36.621
1620953933.799,44.922,31.250,32.715,39.062,-19.043
1620953933.803,-1.465,31.738,49.805,18.066,39.062
1620953933.807,-1.953,33.203,44.922,17.090,49.316
1620953933.811,10.742,21.484,40.039,33.203,14.648
1620953933.815,12.207,20.508,47.363,28.320,-11.719
1620953933.827,16.113,23.438,54.688,20.996,17.578
1620953933.831,19.531,17.090,53.223,27.344,42.969
1620953933.835,23.926,20.508,47.852,22.461,46.875
1620953933.839,23.438,23.438,45.898,20.020,62.988
1620953933.843,21.973,22.461,46.875,24.414,6.836
1620953933.847,16.602,24.902,44.434,32.227,-14.160
1620953933.851,17.090,27.832,42.480,33.691,61.035
1620953933.854,20.996,24.414,46.875,22.949,45.898
1620953933.858,21.973,23.926,48.340,16.602,-2.441
1620953933.862,20.508,30.762,43.457,21.484,5.371
1620953933.866,23.926,36.133,43.457,32.227,9.766
1620953933.870,32.227,36.133,45.410,30.762,29.297
1620953933.865,27.832,35.645,37.109,26.855,58.105
1620953933.869,21.973,38.086,32.715,30.273,53.223
1620953933.873,31.738,36.621,33.203,34.180,30.273
1620953933.877,35.645,33.691,35.156,39.062,56.152
1620953933.881,22.949,34.668,38.086,33.691,48.828
1620953933.885,18.066,34.668,41.504,39.551,41.992
1620953933.889,19.043,29.785,42.480,46.875,32.715
1620953933.892,15.625,24.902,36.621,51.758,10.742
1620953933.896,15.625,27.832,37.598,44.922,-46.387
1620953933.900,18.555,29.297,41.016,32.715,-30.762
1620953933.904,20.996,25.879,38.574,37.598,37.109
1620953933.908,23.926,30.273,35.645,36.621,-7.812
1620953933.921,28.320,30.273,31.738,29.785,-39.551
1620953933.925,26.367,19.531,28.320,22.949,-21.973
1620953933.929,28.320,23.926,33.203,21.973,8.789
1620953933.933,31.738,33.203,29.297,25.879,17.090
1620953933.937,27.832,32.227,25.391,27.344,32.715
1620953933.941,31.250,33.203,32.715,25.391,54.688
1620953933.945,31.250,30.762,32.227,22.949,36.621
1620953933.948,27.832,30.273,26.367,25.391,46.387
1620953933.952,28.320,36.621,21.484,20.508,51.270
1620953933.956,31.250,35.645,25.391,15.625,37.109
1620953933.960,40.527,34.180,26.855,22.461,34.668
1620953933.964,43.457,36.621,24.414,32.715,13.672
1620953933.958,39.551,39.062,25.391,38.086,5.859
1620953933.962,34.180,34.668,23.926,29.785,65.918
1620953933.966,34.668,34.180,23.438,24.414,69.824
1620953933.970,42.480,38.086,23.926,30.273,61.523
1620953933.974,42.480,35.156,26.367,34.180,42.969
1620953933.978,41.016,32.227,24.414,29.785,-19.531
1620953933.982,34.668,35.156,27.832,28.809,-27.832
1620953933.985,8.789,31.250,38.574,35.156,39.062
1620953933.989,3.418,29.785,36.133,40.527,32.715
1620953933.993,18.555,30.762,33.691,35.645,14.648
1620953933.997,8.789,21.973,36.621,24.902,64.941
1620953934.001,16.602,22.461,36.621,29.297,31.738
1620953934.016,37.598,33.203,39.062,39.551,11.230
1620953934.020,29.785,37.109,39.062,35.645,29.785
1620953934.024,18.555,36.621,37.598,30.762,1.953
1620953934.028,20.508,37.109,30.273,35.645,-33.203
1620953934.032,21.973,39.062,25.391,36.133,-38.086
1620953934.036,30.273,34.668,29.297,32.715,20.020
1620953934.040,25.391,29.297,31.250,21.973,44.922
1620953934.043,20.508,29.297,33.203,19.531,9.766
1620953934.047,32.227,31.250,32.715,24.414,20.508
1620953934.051,38.086,23.926,31.250,27.344,33.203
1620953934.055,33.203,22.949,34.180,22.461,-4.883
1620953934.059,24.414,29.785,35.156,20.996,3.418
1620953934.053,24.414,28.809,41.016,33.203,-62.500
1620953934.057,25.391,26.367,41.016,37.109,13.672
1620953934.061,23.926,27.344,34.180,41.016,70.312
1620953934.065,41.016,29.785,36.133,49.316,25.391
1620953934.069,31.250,28.809,40.527,33.691,43.945
1620953934.073,11.719,19.531,42.480,22.461,18.066
1620953934.077,14.648,18.555,46.387,22.949,20.996
1620953934.080,14.160,25.391,43.457,23.926,29.297
1620953934.084,13.672,26.855,42.480,30.762,17.578
1620953934.088,-4.883,20.020,42.969,22.461,25.391
1620953934.092,-9.766,12.695,43.457,21.973,29.297
1620953934.096,0.488,17.090,45.410,21.484,38.574
1620953934.108,0.000,20.996,41.016,16.113,31.738
1620953934.112,12.207,23.438,39.062,26.855,36.133
1620953934.116,13.184,24.414,35.645,39.551,3.906
1620953934.120,7.324,21.973,31.250,34.668,-9.766
1620953934.124,9.766,25.879,31.250,24.414,5.371
1620953934.128,16.602,28.320,33.203,26.855,26.367
1620953934.132,20.996,26.855,37.109,26.855,33.203
1620953934.135,19.531,29.297,39.062,24.902,11.719
1620953934.139,22.461,27.344,40.039,19.043,23.926
1620953934.143,17.578,26.367,37.598,20.508,51.758
1620953934.147,18.555,29.785,36.621,26.367,-4.883
1620953934.151,29.785,31.250,38.086,26.855,-21.484
1620953934.146,32.715,23.926,38.574,28.809,42.969
1620953934.150,40.039,26.367,38.574,29.785,34.668
1620953934.154,39.062,35.645,37.109,40.039,32.227
1620953934.158,23.926,36.133,39.062,39.551,80.078
1620953934.162,23.926,36.133,37.109,25.391,71.777
1620953934.166,25.879,33.691,34.180,21.973,3.906
1620953934.170,18.555,31.250,35.156,28.320,-20.996
1620953934.173,22.461,36.133,29.785,33.203,3.418
1620953934.177,19.043,37.109,30.273,33.203,44.922
1620953934.181,13.672,31.738,33.203,28.809,44.922
1620953934.185,19.043,35.645,32.715,27.832,-3.418
1620953934.189,27.344,41.016,34.180,38.086,44.922
1620953934.202,28.809,33.691,32.715,39.551,1.465
1620953934.206,24.414,31.738,31.738,32.715,-15.137
1620953934.210,26.367,29.297,34.180,31.738,37.109
1620953934.214,31.738,29.785,33.203,26.367,52.246
1620953934.218,32.227,30.273,33.203,26.855,21.484
1620953934.222,22.949,20.508,36.621,29.297,-20.020
1620953934.226,13.672,21.973,36.133,24.902,53.711
1620953934.229,19.531,32.715,39.062,27.832,77.148
1620953934.233,25.879,34.180,37.598,31.250,50.293
1620953934.237,22.461,35.645,27.344,21.973,11.230
1620953934.241,16.113,34.180,30.762,12.695,3.418
1620953934.245,25.391,28.320,38.574,23.926,37.598
1620953934.240,42.480,30.273,36.133,36.133,-1.953
1620953934.244,36.621,31.738,36.133,24.414,-41.016
1620953934.248,29.785,31.250,37.598,13.184,19.043
1620953934.252,26.855,30.762,34.668,17.090,29.785
1620953934.256,22.949,35.645,33.691,19.043,-0.977
1620953934.260,15.625,34.668,30.762,13.672,8.789
1620953934.264,12.207,30.273,26.367,12.695,-14.160
1620953934.267,18.066,27.832,25.391,13.184,19.531
1620953934.271,20.020,28.320,28.320,20.508,79.590
1620953934.275,24.414,31.738,31.250,22.461,20.020
1620953934.279,20.020,27.344,33.691,18.066,-3.418
1620953934.283,15.137,22.461,29.785,24.414,0.488
1620953934.296,18.066,23.926,30.762,39.062,-22.461
1620953934.300,18.555,26.367,32.715,37.598,-11.719
1620953934.304,17.578,26.855,30.273,26.367,-11.230
1620953934.308,29.785,34.180,30.762,35.645,28.809
1620953934.312,44.922,32.715,25.879,51.270,34.668
1620953934.316,29.297,21.973,31.250,41.504,20.020
1620953934.320,7.812,20.020,34.668,22.461,28.809
1620953934.323,-3.418,23.438,30.273,14.160,21.484
1620953934.327,1.465,24.902,33.203,21.484,62.012
1620953934.331,8.789,22.949,33.203,39.062,112.793
1620953934.335,5.371,18.555,32.227,30.762,83.496
1620953934.339,8.789,13.672,35.645,18.555,6.348
1620953934.335,11.230,7.812,34.668,26.855,38.086
1620953934.339,14.648,13.184,29.785,34.668,19.043
1620953934.343,17.090,20.508,29.297,34.668,23.438
1620953934.347,13.184,20.020,31.738,25.879,51.758
1620953934.351,12.207,18.555,34.180,16.602,-17.090
1620953934.355,11.719,20.020,32.227,24.414,17.090
1620953934.359,11.719,23.438,30.273,29.785,58.594
1620953934.362,21.484,22.461,32.227,28.320,-7.812
1620953934.366,25.391,30.762,32.227,23.438,-17.090
1620953934.370,7.812,32.227,31.250,16.113,53.223
1620953934.374,12.695,30.273,36.621,26.367,76.172
1620953934.378,23.438,29.785,36.621,29.297,29.785
1620953934.390,10.254,27.344,31.250,11.230,22.949
1620953934.394,12.695,31.738,32.715,13.184,65.918
1620953934.398,28.320,31.250,33.691,24.414,50.781
1620953934.402,29.785,29.785,32.715,25.391,8.301
1620953934.406,18.555,31.738,34.668,25.391,25.879
1620953934.410,15.625,30.762,33.203,24.414,25.879
1620953934.414,28.320,32.227,28.809,28.809,-17.578
1620953934.417,34.668,35.645,35.645,38.086,10.742
1620953934.421,20.508,32.715,40.527,32.715,28.809
1620953934.425,11.719,28.809,35.645,20.020,6.836
1620953934.429,15.137,26.855,31.738,20.020,32.227
1620953934.433,15.137,30.273,34.180,31.738,21.973
1620953934.427,11.719,31.250,35.156,28.809,57.129
1620953934.431,7.324,30.273,32.227,19.531,41.016
1620953934.435,7.324,25.879,31.250,22.949,65.918
1620953934.439,20.996,28.809,31.738,35.645,124.512
1620953934.443,21.484,36.133,31.250,33.691,110.352
1620953934.447,16.602,34.668,23.926,20.508,16.113
1620953934.451,25.391,31.738,21.973,16.602,-5.859
1620953934.454,27.344,32.715,27.344,18.066,54.199
1620953934.458,24.902,30.273,28.320,25.879,38.086
1620953934.462,17.578,29.785,27.344,21.973,0.488
1620953934.466,16.602,37.109,27.832,10.742,-11.230
1620953934.470,23.926,34.668,31.250,13.672,46.387
1620953934.483,23.438,30.273,30.762,23.926,30.762
1620953934.487,14.648,29.297,31.250,23.926,-57.129
1620953934.491,11.719,26.367,34.668,20.996,-6.348
1620953934.495,17.578,27.344,36.133,33.203,7.812
1620953934.499,26.367,30.762,34.180,43.945,7.324
1620953934.503,22.949,28.809,29.785,39.551,2.441
1620953934.507,14.160,28.320,26.367,32.715,18.555
1620953934.510,19.531,25.879,25.391,33.691,32.715
1620953934.514,31.250,22.949,21.484,40.039,6.348
1620953934.518,39.551,27.832,22.461,54.688,7.324
1620953934.522,20.996,29.297,25.879,34.668,-12.695
1620953934.526,-0.977,34.668,23.438,13.672,2.930
1620953934.523,4.883,29.297,22.461,16.602,20.996
1620953934.527,11.230,24.414,26.855,15.137,30.762
1620953934.531,7.324,27.344,27.344,21.484,18.066
1620953934.535,7.812,23.438,23.438,8.301,-25.391
1620953934.539,19.043,20.996,25.879,7.812,15.625
1620953934.543,24.902,25.391,29.785,22.949,53.711
1620953934.547,23.438,26.367,29.297,20.020,31.250
1620953934.550,18.066,23.926,34.180,16.602,62.500
1620953934.554,9.277,26.855,38.086,30.273,62.988
1620953934.558,15.137,26.855,37.598,42.480,16.602
1620953934.562,16.602,29.785,38.086,38.086,18.555
1620953934.566,10.254,32.227,44.434,33.203,19.043
1620953934.577,13.672,30.762,41.992,26.367,14.160
1620953934.581,20.020,33.203,38.086,26.855,18.555
1620953934.585,23.926,30.762,39.062,36.133,-3.906
1620953934.589,27.344,27.832,40.039,39.062,32.227
1620953934.593,26.367,34.668,36.621,37.598,39.062
1620953934.597,24.902,30.273,34.668,40.039,26.855
1620953934.601,25.879,20.996,35.645,38.574,48.340
1620953934.604,24.414,23.438,35.156,22.461,38.086
1620953934.608,18.555,24.902,36.133,14.648,13.184
1620953934.612,25.879,23.438,37.598,17.578,-23.438
1620953934.616,28.320,22.461,43.457,21.973,3.906
1620953934.620,24.414,33.691,47.363,19.043,45.898
1620953934.616,29.785,41.016,42.480,18.555,14.648
1620953934.620,28.809,40.039,35.156,29.297,4.883
1620953934.624,28.809,40.039,32.715,34.180,9.766
1620953934.628,31.738,35.645,34.668,36.133,39.062
1620953934.632,19.531,32.715,38.086,30.762,41.016
1620953934.636,14.160,35.645,40.039,33.691,58.594
1620953934.640,22.949,32.715,34.668,37.598,50.293
1620953934.643,33.691,17.578,32.227,42.480,-20.508
1620953934.647,48.340,19.531,33.203,62.500,-9.766
1620953934.651,43.457,36.133,22.949,43.945,54.688
1620953934.655,21.973,45.898,19.043,19.043,-8.789
1620953934.659,20.508,41.016,26.855,27.832,-35.645
1620953934.671,21.484,37.598,14.648,27.832,18.555
1620953934.675,13.672,42.969,7.324,21.973,44.922
1620953934.679,16.113,48.340,14.648,18.066,63.477
1620953934.683,17.578,46.387,8.789,7.812,21.973
1620953934.687,15.137,46.875,7.812,2.441,6.836
1620953934.691,20.508,55.176,14.160,0.488,5.859
1620953934.695,13.672,52.734,11.719,-4.395,-17.578
1620953934.698,11.719,48.828,5.371,-4.883,-12.207
1620953934.702,16.602,52.734,3.418,-5.859,20.020
1620953934.706,23.926,62.500,5.371,0.488,32.227
1620953934.710,37.598,64.453,10.254,21.973,-12.695
1620953934.714,44.434,60.059,13.184,27.832,27.344
1620953934.727,46.387,59.570,16.602,29.785,65.918
1620953934.731,35.645,57.617,20.020,26.855,21.484
1620953934.735,30.273,52.734,20.020,15.137,69.336
1620953934.739,40.039,47.852,18.066,28.809,119.629
1620953934.743,49.805,50.781,15.625,41.992,67.383
1620953934.747,51.270,51.270,13.672,33.203,1.465
1620953934.751,40.039,49.316,15.625,20.508,20.020
1620953934.754,20.508,47.363,13.184,18.066,-30.762
1620953934.758,17.090,43.457,17.578,27.832,-28.809
1620953934.762,28.320,41.016,27.344,30.762,-7.812
1620953934.766,22.461,38.086,28.320,24.414,-81.055
1620953934.770,29.785,37.598,25.391,22.949,-6.348
1620953934.766,44.434,41.016,24.414,36.621,63.477
1620953934.770,38.086,39.062,25.391,38.086,51.270
1620953934.774,26.367,30.762,26.855,19.043,86.914
1620953934.778,26.367,26.855,26.367,20.508,78.125
1620953934.782,29.297,34.668,24.414,36.133,53.223
1620953934.786,37.598,36.133,23.926,33.691,62.500
1620953934.790,42.480,36.133,29.297,30.273,74.707
1620953934.793,42.969,40.039,36.133,38.574,17.578
1620953934.797,45.410,37.109,38.574,41.992,0.977
1620953934.801,45.410,33.203,40.527,49.805,31.250
1620953934.805,42.480,34.180,41.016,46.875,-12.695
1620953934.809,36.621,34.180,40.527,31.738,-9.277
1620953934.803,41.992,35.645,39.551,28.809,28.320
1620953934.807,52.734,42.969,41.016,40.039,42.480
1620953934.811,45.898,42.480,39.062,33.203,73.242
1620953934.815,16.113,35.645,35.156,19.043,76.660
1620953934.819,3.906,35.645,33.203,20.996,12.695
1620953934.823,8.301,33.691,28.320,21.973,-22.949
1620953934.827,6.836,33.691,25.879,19.043,20.020
1620953934.830,7.812,36.133,29.785,20.020,52.734
1620953934.834,12.695,35.156,32.227,22.461,2.930
1620953934.838,17.578,33.203,34.668,24.902,12.695
1620953934.842,23.438,30.273,39.062,30.762,0.977
1620953934.846,23.438,27.344,41.992,33.203,33.691
1620953934.858,27.832,26.855,40.527,32.227,-12.695
1620953934.862,23.438,31.250,31.738,21.484,-21.973
1620953934.866,22.461,29.297,28.809,18.066,-3.418
1620953934.870,33.203,29.297,30.762,18.066,13.672
1620953934.874,21.973,35.645,28.809,12.695,74.707
1620953934.878,20.020,37.109,31.250,17.578,37.109
1620953934.882,21.484,24.414,36.621,19.043,52.246
1620953934.885,22.461,23.926,34.668,20.508,47.852
1620953934.889,27.832,36.133,29.297,18.066,43.457
1620953934.893,23.926,34.668,25.391,14.648,58.594
1620953934.897,29.297,34.180,27.832,25.879,41.992
1620953934.901,34.668,34.668,29.785,33.691,19.531
1620953934.897,29.785,30.762,30.273,35.645,28.320
1620953934.901,26.855,29.785,23.438,33.691,75.684
1620953934.905,17.578,32.227,22.949,36.621,62.500
1620953934.909,26.367,29.785,29.297,47.852,46.875
1620953934.913,31.738,29.785,24.414,41.992,36.621
1620953934.917,13.672,33.691,25.391,29.785,-32.227
1620953934.921,6.348,26.367,27.832,32.715,-30.273
1620953934.924,12.695,27.344,27.832,40.527,1.953
1620953934.928,15.137,32.715,30.762,33.691,48.340
1620953934.932,2.930,26.855,32.715,18.555,49.316
1620953934.936,3.418,24.414,26.855,21.484,35.645
1620953934.940,14.160,25.879,26.367,29.297,14.648
1620953934.952,11.230,27.344,29.785,18.555,44.922
1620953934.956,9.766,32.715,26.855,8.789,80.566
1620953934.960,17.578,35.645,23.926,6.836,67.383
1620953934.964,31.738,36.133,22.949,5.371,54.199
1620953934.968,35.156,36.621,24.902,-1.465,63.965
1620953934.972,28.809,38.574,28.809,-0.977,47.852
1620953934.976,34.668,35.645,23.438,0.977,43.945
1620953934.979,54.199,33.203,23.926,34.180,38.574
1620953934.983,55.176,27.344,33.203,49.805,6.348
1620953934.987,25.879,22.461,29.297,28.809,-6.348
1620953934.991,13.672,25.391,32.715,26.367,20.020
1620953934.995,26.855,25.391,41.992,40.527,45.410
1620953934.990,30.762,18.555,44.922,47.852,56.152
1620953934.994,20.508,15.625,50.781,46.875,31.250
1620953934.998,18.066,18.066,55.664,40.527,25.391
1620953935.002,26.367,20.020,52.734,38.086,20.996
1620953935.006,36.133,18.066,42.969,41.504,76.172
1620953935.010,27.832,16.113,44.434,37.109,36.133
1620953935.014,14.648,20.996,46.387,28.809,-27.832
1620953935.017,6.348,23.926,40.527,24.414,49.805
1620953935.021,8.789,25.391,39.551,30.273,45.898
1620953935.025,19.043,18.066,41.016,36.621,39.551
1620953935.029,19.043,19.531,45.898,31.738,88.867
1620953935.033,19.043,31.738,45.898,24.414,79.102
1620953935.046,22.949,31.738,37.109,23.438,44.434
1620953935.050,17.578,32.715,30.762,18.555,8.301
1620953935.054,12.207,30.762,28.809,6.348,50.781
1620953935.058,15.625,26.367,26.367,2.441,78.613
1620953935.062,23.438,26.367,32.227,16.113,6.348
1620953935.066,34.180,29.785,41.504,29.297,6.348
1620953935.070,38.574,33.691,41.504,38.086,21.484
1620953935.073,37.109,31.250,40.039,39.551,30.762
1620953935.077,33.203,24.902,36.133,40.039,32.715
1620953935.081,46.387,23.438,39.062,51.758,47.852
1620953935.085,53.711,28.320,46.387,52.246,8.789
1620953935.089,44.434,27.832,43.945,51.270,-17.090
1620953935.083,39.551,21.973,46.875,49.805,-24.902
1620953935.087,45.898,20.996,50.293,54.688,23.926
1620953935.091,57.617,29.785,47.852,61.523,75.195
1620953935.095,49.316,37.109,46.875,49.805,19.531
1620953935.099,34.180,36.621,43.945,37.598,-53.223
1620953935.103,34.180,34.180,33.203,34.668,-15.625
1620953935.107,29.297,36.621,21.484,33.203,4.883
1620953935.110,24.902,40.039,22.461,23.438,-3.906
1620953935.114,11.230,33.691,22.461,1.465,26.367
1620953935.118,-2.441,27.344,20.996,-5.371,-1.953
1620953935.122,11.719,28.320,33.691,9.766,-23.926
1620953935.126,15.137,33.203,38.086,19.043,-22.949
1620953935.140,0.488,31.738,33.203,12.207,27.832
1620953935.144,1.465,27.344,33.203,18.066,36.133
1620953935.148,9.766,24.902,26.367,30.762,18.555
1620953935.152,17.578,21.973,31.250,38.086,-16.113
1620953935.156,24.902,20.508,38.086,35.156,11.719
1620953935.160,18.555,21.973,35.645,25.879,29.297
1620953935.164,24.902,19.043,40.527,34.180,7.324
1620953935.167,31.250,20.996,41.992,50.293,12.695
1620953935.171,23.926,25.391,38.086,42.480,3.418
1620953935.175,20.996,25.879,40.039,31.738,9.766
1620953935.179,24.414,25.391,39.062,35.156,27.832
1620953935.183,30.762,22.949,34.180,39.551,26.367
1620953935.178,30.762,27.344,31.738,32.227,19.043
1620953935.182,20.020,29.785,31.738,24.902,29.297
1620953935.186,16.602,30.273,34.180,35.156,0.977
1620953935.190,17.090,32.227,34.180,30.273,-11.719
1620953935.194,13.672,32.227,35.156,17.090,-24.414
1620953935.198,8.789,31.738,36.621,7.324,-13.184
1620953935.202,4.883,30.273,36.621,6.348,49.805
1620953935.205,17.090,26.855,35.645,13.184,25.391
