timestamps,TP9,AF7,AF8,TP10,Right AUX
1620953681.020,21.484,22.461,33.691,30.273,38.086
1620953681.024,26.367,20.508,30.273,28.809,-10.254
1620953681.028,20.508,18.066,28.809,20.020,2.441
1620953681.032,12.695,16.602,28.809,21.973,64.453
1620953681.036,21.973,18.066,29.785,34.180,34.668
1620953681.040,32.227,22.949,30.273,29.297,70.312
1620953681.044,36.133,29.297,29.297,20.996,80.078
1620953681.047,19.531,27.832,30.273,22.461,29.297
1620953681.051,8.789,23.438,29.297,22.461,21.484
1620953681.055,23.926,28.320,31.250,28.320,9.277
1620953681.059,27.344,28.320,33.691,29.297,22.461
1620953681.063,20.996,28.320,33.691,27.344,62.988
1620953681.067,24.414,33.691,40.039,30.273,-21.484
1620953681.071,17.090,32.227,40.527,27.832,50.293
1620953681.075,24.414,31.738,42.480,28.320,70.312
1620953681.079,33.691,35.645,41.016,31.738,11.719
1620953681.083,26.367,37.598,38.574,29.785,-19.043
1620953681.086,24.902,38.574,38.574,19.531,6.836
1620953681.090,24.902,39.062,39.062,16.113,52.246
1620953681.094,26.367,33.691,39.062,24.414,10.254
1620953681.098,26.855,28.809,41.992,31.738,-59.082
1620953681.102,19.531,33.691,40.527,26.855,6.348
1620953681.115,15.625,34.180,38.574,20.996,43.945
1620953681.119,15.137,35.156,36.621,26.855,-6.348
1620953681.123,19.043,37.109,32.715,30.762,20.020
1620953681.127,24.902,32.715,30.762,31.250,16.602
1620953681.131,29.785,32.227,29.785,29.297,-36.621
1620953681.135,34.668,28.320,30.273,31.738,4.883
1620953681.139,34.668,24.414,35.156,39.062,4.883
1620953681.142,31.250,24.902,34.668,33.691,-9.277
1620953681.146,24.414,28.809,31.250,21.484,48.828
1620953681.150,14.648,30.273,31.738,12.695,34.180
1620953681.154,19.043,24.902,30.762,19.531,43.945
1620953681.158,30.273,26.855,33.203,26.855,50.293
1620953681.151,22.949,29.297,34.668,16.113,-2.930
1620953681.155,13.672,28.320,31.250,12.695,7.324
1620953681.159,15.625,25.879,34.668,28.320,-14.160
1620953681.163,10.254,24.902,28.320,36.621,31.250
1620953681.167,7.812,26.367,20.020,25.879,31.738
1620953681.171,9.766,24.902,19.531,11.230,-12.695
1620953681.175,10.742,27.344,18.555,10.254,25.879
1620953681.178,8.301,30.762,19.531,17.090,27.832
1620953681.182,3.418,30.273,20.508,16.113,-9.766
1620953681.186,7.324,26.855,23.438,10.254,70.801
1620953681.190,13.184,29.785,25.879,13.672,66.406
1620953681.194,21.973,33.691,24.902,24.414,26.855
1620953681.208,19.531,36.133,25.391,24.902,69.336
1620953681.212,16.602,38.086,25.879,16.602,77.637
1620953681.216,18.555,37.598,22.949,17.578,106.934
1620953681.220,21.973,39.062,22.949,26.367,104.980
1620953681.224,29.297,38.086,23.926,31.738,31.250
1620953681.228,29.297,31.250,20.020,27.344,12.695
1620953681.232,22.461,29.785,19.531,24.902,-6.836
1620953681.235,20.020,32.715,20.996,26.367,16.602
1620953681.239,24.414,35.645,25.391,32.715,26.367
1620953681.243,21.484,32.715,28.809,34.180,27.832
1620953681.247,20.020,31.250,27.832,29.297,20.020
1620953681.251,27.344,34.668,30.762,30.762,-7.324
1620953681.245,27.832,37.109,28.320,34.668,-12.695
1620953681.249,33.203,39.062,28.320,34.180,-21.484
1620953681.253,35.645,36.621,25.879,29.297,13.184
1620953681.257,31.738,33.691,28.320,28.320,49.316
1620953681.261,26.855,34.180,32.227,39.551,14.160
1620953681.265,28.320,36.621,29.297,49.805,14.160
1620953681.269,17.090,34.668,30.762,37.598,24.902
1620953681.272,0.488,31.738,36.133,29.297,-21.484
1620953681.276,4.883,34.668,35.156,34.180,-9.277
1620953681.280,12.207,36.621,34.180,41.992,0.000
1620953681.284,14.648,33.203,30.273,26.367,-63.477
1620953681.288,17.090,33.691,27.832,7.812,38.574
1620953681.301,27.344,33.691,27.832,17.090,87.402
1620953681.305,39.062,34.180,26.367,26.367,6.836
1620953681.309,48.828,41.992,32.715,28.320,50.781
1620953681.313,43.457,41.504,35.156,23.926,119.629
1620953681.317,37.109,34.180,32.227,30.762,72.266
1620953681.321,47.852,36.621,30.762,40.039,16.602
1620953681.325,42.969,40.039,32.715,30.273,21.973
1620953681.328,20.020,36.621,32.715,19.043,49.805
1620953681.332,13.672,32.715,32.227,16.602,24.902
1620953681.336,19.043,28.320,35.156,22.461,0.977
1620953681.340,16.113,26.855,31.250,23.926,-0.488
1620953681.344,18.555,25.879,30.762,18.066,-12.207
1620953681.339,15.137,27.832,34.668,18.555,15.625
1620953681.343,15.625,34.668,34.180,27.344,21.973
1620953681.347,28.320,26.367,33.691,31.250,21.484
1620953681.351,27.832,16.113,33.203,27.344,50.293
1620953681.355,18.066,21.973,33.691,25.879,4.883
1620953681.359,18.066,21.484,34.668,34.180,-52.246
1620953681.363,32.715,22.461,32.227,46.387,-4.883
1620953681.366,28.320,24.414,35.156,41.992,40.039
1620953681.370,12.207,23.438,34.180,27.344,43.945
1620953681.374,18.555,25.391,33.203,28.320,23.926
1620953681.378,18.555,26.855,34.180,31.250,20.996
1620953681.382,16.113,28.809,30.273,30.273,33.691
1620953681.396,16.602,32.227,27.344,23.926,59.082
1620953681.400,15.137,32.715,27.344,13.184,47.852
1620953681.404,10.742,30.273,30.273,29.785,-15.625
1620953681.408,4.883,31.250,28.809,40.527,-20.996
1620953681.412,1.953,26.855,30.273,30.762,13.184
1620953681.416,1.465,25.391,31.738,22.949,29.785
1620953681.420,12.207,29.785,27.832,24.414,14.648
1620953681.423,20.020,29.785,26.855,22.949,33.691
1620953681.427,25.879,32.227,26.367,15.625,34.180
1620953681.431,28.320,37.109,26.367,17.090,38.086
1620953681.435,28.320,35.156,25.391,26.855,39.062
1620953681.439,28.320,29.785,25.879,31.250,43.457
1620953681.433,28.320,29.297,24.414,20.508,14.648
1620953681.437,27.832,36.133,26.367,20.996,25.391
1620953681.441,22.949,40.527,32.227,31.738,3.418
1620953681.445,26.855,37.598,32.227,36.621,-36.133
1620953681.449,36.133,37.598,31.738,36.621,-3.418
1620953681.453,34.668,35.645,34.668,32.715,44.922
1620953681.457,31.250,34.180,35.156,31.250,36.133
1620953681.460,26.855,32.715,38.574,39.062,-4.395
1620953681.464,29.297,33.203,40.527,35.156,21.973
1620953681.468,21.484,36.133,36.133,20.508,27.832
1620953681.472,12.207,34.180,30.273,17.578,38.574
1620953681.476,8.301,36.133,26.367,17.578,4.395
1620953681.489,10.254,38.574,30.762,14.648,-28.320
1620953681.493,13.672,31.738,29.785,13.184,-15.137
1620953681.497,-0.488,30.762,23.438,11.230,0.000
1620953681.501,-6.836,34.180,22.949,15.625,18.066
1620953681.505,12.695,35.156,29.297,31.250,-20.508
1620953681.509,25.879,37.598,30.762,36.621,5.859
1620953681.513,24.902,34.180,22.949,22.461,22.461
1620953681.516,26.855,30.762,23.926,23.926,11.719
1620953681.520,33.203,34.668,26.367,38.086,50.781
1620953681.524,43.457,39.062,23.438,33.691,18.555
1620953681.528,41.504,35.645,21.973,23.926,21.484
1620953681.532,29.297,31.738,22.949,22.461,-8.789
1620953681.526,29.297,32.715,27.344,24.414,17.090
1620953681.530,32.715,29.297,21.484,26.367,50.781
1620953681.534,32.715,29.785,20.020,27.832,56.152
1620953681.538,33.691,32.715,27.344,24.902,83.008
1620953681.542,31.738,33.203,28.320,26.367,15.137
1620953681.546,32.227,32.715,28.809,28.320,-12.207
1620953681.550,30.273,32.227,30.762,21.973,91.797
1620953681.553,26.855,37.598,31.738,19.043,111.816
1620953681.557,30.273,40.527,31.250,27.832,51.758
1620953681.561,23.438,40.527,34.668,41.016,-15.137
1620953681.565,20.020,37.109,36.621,38.574,7.324
1620953681.569,17.090,33.203,32.715,33.203,32.227
1620953681.583,12.207,41.016,34.180,35.645,-26.855
1620953681.587,23.926,45.410,35.156,37.598,15.625
1620953681.591,28.320,41.504,31.250,33.691,57.129
1620953681.595,28.809,41.016,31.738,30.273,21.484
1620953681.599,35.645,39.551,31.738,34.180,-0.977
1620953681.603,30.273,37.109,25.879,37.598,51.758
1620953681.607,30.762,40.039,21.484,32.227,50.293
1620953681.610,32.227,38.574,24.902,27.344,-16.113
1620953681.614,23.438,34.668,27.832,30.273,9.766
1620953681.618,23.438,35.156,25.879,31.250,-35.156
1620953681.622,30.273,38.574,27.344,31.250,-36.621
1620953681.626,29.297,38.086,29.297,30.762,38.086
1620953681.621,20.020,35.156,26.367,20.020,43.945
1620953681.625,21.973,34.668,23.926,14.648,69.336
1620953681.629,26.855,34.668,20.508,13.184,76.660
1620953681.633,21.484,31.738,23.438,12.695,48.828
1620953681.637,15.137,35.156,23.438,13.184,6.836
1620953681.641,20.996,39.551,24.414,14.648,-2.441
1620953681.645,25.391,39.062,29.297,24.414,36.133
1620953681.648,19.043,33.691,28.809,31.738,52.734
1620953681.652,15.137,33.691,28.809,27.832,33.691
1620953681.656,23.926,36.133,29.297,26.855,45.898
1620953681.660,42.969,37.598,31.738,35.645,13.184
1620953681.664,46.875,37.109,34.668,39.551,11.230
1620953681.696,28.320,34.180,38.086,38.086,73.242
1620953681.700,18.555,33.203,36.133,36.133,44.922
1620953681.704,17.090,31.738,37.109,39.551,1.953
1620953681.708,26.367,32.227,39.551,46.875,28.320
1620953681.712,31.738,34.180,35.156,41.504,35.156
1620953681.716,13.184,31.738,35.156,29.785,-5.371
1620953681.720,21.973,31.738,39.062,26.855,-1.465
1620953681.723,23.926,32.227,38.574,34.668,39.062
1620953681.727,12.207,33.691,36.133,34.668,-7.812
1620953681.731,12.695,39.062,35.156,24.902,25.879
1620953681.735,15.137,32.227,35.645,21.484,90.820
1620953681.739,25.391,27.344,35.156,27.832,25.879
1620953681.715,21.973,35.156,34.180,27.832,40.527
1620953681.719,21.484,34.180,32.227,19.531,32.227
1620953681.723,25.391,28.320,25.391,8.301,-30.762
1620953681.727,23.926,31.738,24.902,12.207,19.043
1620953681.731,36.621,36.621,29.785,29.785,-17.578
1620953681.735,36.621,39.551,32.227,32.227,-8.301
1620953681.739,19.043,37.109,29.297,24.414,40.527
1620953681.742,21.484,33.203,32.227,30.273,-30.762
1620953681.746,36.621,32.715,34.668,40.527,-20.996
1620953681.750,31.738,32.227,30.762,34.668,43.457
1620953681.754,20.020,29.297,27.344,20.996,-17.090
1620953681.758,25.879,28.809,22.949,24.414,-10.254
1620953681.770,37.598,32.715,24.902,37.598,11.719
1620953681.774,38.086,32.715,29.785,38.086,26.367
1620953681.778,36.621,30.762,31.738,31.738,54.199
1620953681.782,28.809,29.785,34.180,29.785,20.996
1620953681.786,19.043,31.250,33.691,34.180,-11.230
1620953681.790,30.273,35.156,31.250,40.527,-34.180
1620953681.794,28.809,34.668,29.785,39.551,-12.207
1620953681.797,12.695,33.203,34.180,33.203,-1.465
1620953681.801,11.230,33.691,36.621,42.480,34.180
1620953681.805,22.949,35.645,33.691,48.340,24.414
1620953681.809,24.902,31.738,29.785,31.738,40.527
1620953681.813,19.043,26.855,27.344,20.508,72.266
1620953681.808,24.414,28.320,28.320,21.484,98.633
1620953681.812,34.180,27.344,26.367,26.367,37.109
1620953681.816,32.715,29.785,28.809,21.973,-32.227
1620953681.820,28.320,32.227,32.227,16.602,17.578
1620953681.824,26.367,35.156,32.227,23.438,47.363
1620953681.828,28.809,41.992,32.715,36.133,32.715
1620953681.832,34.180,37.598,34.668,40.039,-17.090
1620953681.835,33.691,34.668,33.203,36.621,-65.918
1620953681.839,30.762,39.062,36.133,34.180,52.734
1620953681.843,28.320,40.527,38.086,32.227,85.938
1620953681.847,32.715,42.480,37.598,26.855,6.348
1620953681.851,38.574,42.969,42.480,19.043,-18.555
1620953681.864,25.879,39.062,42.480,14.160,-12.207
1620953681.868,17.578,36.621,39.551,15.625,20.996
1620953681.872,19.043,35.156,38.574,23.438,5.371
1620953681.876,15.625,36.621,40.527,20.020,19.043
1620953681.880,10.742,38.574,40.039,13.672,41.016
1620953681.884,16.602,35.645,38.086,25.391,14.648
1620953681.888,27.832,35.645,41.992,37.109,7.812
1620953681.891,25.879,38.086,41.016,42.969,-14.648
1620953681.895,20.020,39.062,34.668,38.574,-9.277
1620953681.899,16.113,38.574,34.180,35.156,-24.902
1620953681.903,21.484,38.574,34.180,45.898,19.531
1620953681.907,23.926,37.598,30.762,43.457,14.648
1620953681.902,21.484,37.598,33.203,35.156,-34.180
1620953681.906,20.508,34.668,33.691,31.738,-8.301
1620953681.910,20.996,29.785,26.367,29.785,66.406
1620953681.914,24.414,26.855,24.414,32.227,51.270
1620953681.918,22.461,25.879,25.391,25.879,28.320
1620953681.922,15.137,27.832,25.391,16.113,37.598
1620953681.926,18.555,28.320,31.250,20.996,38.086
1620953681.929,26.367,22.949,35.156,29.297,35.645
1620953681.933,33.691,24.902,37.109,25.879,-22.461
1620953681.937,31.250,30.762,44.922,15.137,-39.551
1620953681.941,22.949,29.297,42.969,11.719,29.297
1620953681.945,29.297,29.785,33.203,16.113,30.273
1620953681.958,32.227,30.762,30.273,10.742,3.418
1620953681.962,29.297,31.738,31.738,1.465,19.531
1620953681.966,31.250,35.156,33.203,1.953,21.973
1620953681.970,32.227,37.109,32.227,15.137,37.109
1620953681.974,20.996,32.715,31.738,22.461,61.523
1620953681.978,11.230,31.250,29.297,19.043,54.688
1620953681.982,10.742,34.180,27.832,18.555,67.383
1620953681.985,7.812,32.227,31.738,23.438,65.430
1620953681.989,10.254,29.785,35.156,34.180,-8.789
1620953681.993,19.043,26.855,36.621,34.668,30.762
1620953681.997,12.207,24.902,38.574,28.809,17.578
1620953682.001,7.324,29.297,40.039,38.574,37.598
1620953681.995,25.391,28.809,38.574,45.898,44.434
1620953681.999,31.738,24.902,37.598,39.551,8.789
1620953682.003,24.902,28.320,35.156,30.273,94.238
1620953682.007,30.273,31.250,36.621,29.785,90.332
1620953682.011,30.273,29.297,37.109,33.691,23.438
1620953682.015,20.996,29.297,36.621,27.344,3.418
1620953682.019,9.766,31.738,33.203,11.719,-1.465
1620953682.022,6.836,37.109,29.785,9.277,-45.898
1620953682.026,12.695,30.273,34.180,20.020,22.949
1620953682.030,24.414,29.297,36.621,25.391,52.246
1620953682.034,31.250,39.062,35.645,20.996,-35.156
1620953682.038,30.273,33.203,36.621,18.555,-20.508
1620953682.051,31.250,28.809,32.227,24.902,-12.207
1620953682.055,30.762,31.738,27.832,30.762,-9.277
1620953682.059,35.156,32.227,28.809,27.344,57.617
1620953682.063,26.855,29.297,32.715,25.391,47.363
1620953682.067,21.484,29.785,35.645,33.691,25.879
1620953682.071,28.320,28.809,33.203,35.156,3.418
1620953682.075,25.391,27.832,32.715,22.949,-43.945
1620953682.078,22.949,31.738,32.715,11.230,-45.410
1620953682.082,17.578,30.273,30.273,6.348,-61.523
1620953682.086,13.672,25.391,24.902,6.836,-31.250
1620953682.090,15.137,22.949,22.461,13.184,53.711
1620953682.094,15.137,24.414,30.273,11.719,50.293
1620953682.108,16.602,28.320,25.879,6.348,45.898
1620953682.112,38.574,25.879,16.113,36.133,31.738
1620953682.116,36.621,23.438,28.809,48.828,11.719
1620953682.120,1.953,25.391,39.062,17.578,33.691
1620953682.124,0.488,20.020,40.039,6.836,8.301
1620953682.128,2.441,16.113,36.621,17.090,-2.930
1620953682.132,-4.395,12.695,36.621,23.926,35.156
1620953682.135,-1.953,9.766,41.992,24.414,23.438
1620953682.139,-17.090,4.883,46.875,7.324,0.000
1620953682.143,-13.184,0.977,52.734,4.883,29.297
1620953682.147,-2.441,2.441,51.758,16.113,32.227
1620953682.151,-3.906,1.953,47.363,15.625,45.410
1620953682.145,-6.836,3.418,43.457,16.602,32.715
1620953682.149,-0.977,6.836,41.504,19.531,7.812
1620953682.153,15.625,10.254,42.480,29.785,7.324
1620953682.157,20.996,15.137,46.387,39.062,36.621
1620953682.161,17.090,17.090,47.363,34.668,34.668
1620953682.165,12.207,18.066,45.410,26.855,77.637
1620953682.169,21.484,20.508,45.410,29.785,62.012
1620953682.172,24.902,22.461,40.527,24.902,-11.230
1620953682.176,16.113,21.973,36.621,10.254,19.531
1620953682.180,11.230,21.973,33.203,3.418,52.734
1620953682.184,6.836,22.461,29.785,-1.953,52.734
1620953682.188,10.254,24.414,28.809,4.395,12.207
1620953682.185,16.602,24.414,29.297,11.719,52.734
1620953682.189,17.578,28.320,31.738,12.207,61.523
1620953682.193,18.066,28.809,35.156,15.137,101.074
1620953682.197,27.832,23.926,31.250,25.391,121.582
1620953682.201,21.973,23.438,30.273,27.344,35.645
1620953682.205,7.812,22.949,36.621,17.578,33.203
1620953682.209,15.625,22.949,31.738,22.949,40.527
1620953682.212,29.297,23.926,31.738,38.574,-5.859
1620953682.216,25.879,23.438,31.250,34.668,9.277
1620953682.220,15.625,21.484,30.273,21.973,-15.625
1620953682.224,12.695,17.090,35.645,19.043,-45.898
1620953682.228,23.438,18.066,32.715,29.785,14.160
1620953682.239,18.066,21.484,27.344,33.203,21.484
1620953682.243,5.371,18.066,27.344,25.391,8.789
1620953682.247,8.789,21.973,34.668,26.855,46.387
1620953682.251,11.719,29.297,36.621,30.273,64.941
1620953682.255,14.160,25.391,36.133,27.832,11.719
1620953682.259,16.602,25.391,36.621,25.391,9.766
1620953682.263,19.531,31.738,32.715,21.484,20.508
1620953682.266,31.738,32.227,32.227,22.949,16.602
1620953682.270,33.691,31.738,31.250,29.297,50.293
1620953682.274,28.809,30.762,32.715,32.715,59.082
1620953682.278,32.715,29.785,36.621,27.832,-0.488
1620953682.282,33.203,26.367,38.574,28.320,-54.199
1620953682.276,27.832,23.438,39.551,40.039,-36.621
1620953682.280,29.785,23.438,38.574,37.598,10.742
1620953682.284,25.879,26.367,34.180,27.832,45.898
1620953682.288,18.555,27.344,27.344,21.973,52.734
1620953682.292,21.484,27.832,31.250,21.484,41.016
1620953682.296,18.555,29.297,34.180,30.273,38.574
1620953682.300,19.531,32.715,31.250,28.320,17.090
1620953682.303,19.531,34.180,31.738,14.160,-15.137
1620953682.307,31.250,30.273,32.715,12.207,17.090
1620953682.311,44.434,33.691,32.715,21.973,73.242
1620953682.315,38.086,37.109,33.203,23.926,45.898
1620953682.319,32.227,32.715,33.203,19.531,45.898
1620953682.333,26.855,27.832,29.297,21.484,20.020
1620953682.337,22.949,20.996,33.203,37.109,15.137
1620953682.341,54.688,20.020,37.109,69.336,1.953
1620953682.345,57.617,40.527,31.250,58.105,-10.254
1620953682.349,5.371,52.246,28.320,9.277,36.133
1620953682.353,0.488,45.410,27.344,11.230,54.688
1620953682.357,16.602,42.480,22.461,25.391,86.426
1620953682.360,8.789,48.828,12.207,11.230,74.707
1620953682.364,-0.977,54.688,8.789,-2.930,10.254
1620953682.368,7.812,49.316,7.324,-0.977,-6.836
1620953682.372,26.855,51.758,7.324,10.254,-24.414
1620953682.376,5.371,55.664,7.812,4.395,-23.926
1620953682.370,-12.207,52.734,5.859,-8.301,-27.344
1620953682.374,-2.930,50.781,4.883,0.977,4.395
1620953682.378,8.301,50.293,4.395,14.648,3.418
1620953682.382,21.484,48.340,4.883,12.695,-14.160
1620953682.386,9.277,46.875,8.789,6.348,23.438
1620953682.390,2.930,48.340,8.301,4.883,25.879
1620953682.394,20.508,46.875,9.277,10.254,28.320
1620953682.397,35.645,46.387,11.719,14.160,58.594
1620953682.401,30.762,48.828,15.137,19.043,81.055
1620953682.405,23.438,42.480,19.043,16.602,59.570
1620953682.409,20.508,34.180,17.090,14.160,-8.301
1620953682.413,11.719,41.504,19.043,24.902,-17.578
1620953682.426,9.766,42.969,23.438,20.996,20.996
1620953682.430,16.113,37.109,30.273,12.695,61.523
1620953682.434,14.160,34.668,34.668,20.020,66.895
1620953682.438,18.066,34.180,34.180,28.320,33.203
1620953682.442,17.578,37.109,30.762,24.414,8.789
1620953682.446,13.672,40.039,30.273,18.066,1.953
1620953682.450,26.367,40.039,32.227,23.438,-17.578
1620953682.453,29.297,37.598,30.762,24.902,10.254
1620953682.457,24.414,35.156,32.227,25.879,48.340
1620953682.461,19.043,38.574,31.738,28.809,60.547
1620953682.465,10.742,39.062,23.438,28.809,49.316
1620953682.469,19.043,34.668,26.855,32.715,38.086
1620953682.465,30.762,39.551,37.109,37.109,26.367
1620953682.469,28.320,42.480,39.551,25.879,30.273
1620953682.473,35.156,41.016,43.457,15.137,21.484
1620953682.477,37.109,38.574,46.387,14.648,99.609
1620953682.481,35.156,35.156,45.898,18.555,118.652
1620953682.485,42.480,35.156,45.898,20.020,4.395
1620953682.489,44.922,38.574,42.480,18.066,6.348
1620953682.492,29.785,39.551,36.621,23.926,54.688
1620953682.496,18.066,38.086,36.133,24.414,29.297
1620953682.500,23.438,37.598,38.574,24.902,21.973
1620953682.504,18.555,37.109,37.109,24.414,58.105
1620953682.508,17.578,34.668,34.180,21.484,-11.719
1620953682.521,18.555,32.715,31.738,20.996,-52.734
1620953682.525,2.441,30.762,26.855,22.461,-16.113
1620953682.529,-0.977,32.715,25.879,20.996,24.414
1620953682.533,2.441,36.133,23.926,20.020,79.102
1620953682.537,0.977,33.691,20.508,26.367,39.551
1620953682.541,9.766,28.320,18.555,29.297,52.246
1620953682.545,14.160,31.738,20.508,23.926,79.102
1620953682.548,9.766,34.668,18.555,20.508,49.805
1620953682.552,19.531,35.645,19.043,26.367,28.320
1620953682.556,29.297,33.203,20.996,30.762,24.902
1620953682.560,26.855,29.297,22.949,29.785,31.250
1620953682.564,18.066,35.156,23.438,27.832,19.531
1620953682.558,18.066,38.086,21.484,29.785,46.875
1620953682.562,21.484,36.621,23.926,35.156,2.441
1620953682.566,18.066,37.109,26.367,33.691,-38.086
1620953682.570,12.695,33.691,22.461,23.438,-34.668
1620953682.574,11.230,30.762,21.484,21.973,-49.805
1620953682.578,19.043,32.715,24.414,26.367,-8.301
1620953682.582,29.785,32.715,28.809,30.762,30.273
1620953682.585,16.113,33.691,29.785,23.438,46.387
1620953682.589,14.648,32.227,29.297,18.066,47.363
1620953682.593,35.156,31.250,31.738,34.668,-8.301
1620953682.597,28.320,35.645,33.691,36.133,-7.812
1620953682.601,30.762,37.598,36.133,28.809,-15.137
1620953682.614,36.133,39.551,37.109,26.855,-7.324
1620953682.618,38.574,39.062,35.645,21.973,63.477
1620953682.622,36.133,37.598,31.250,28.809,26.855
1620953682.626,23.438,36.133,29.297,28.320,-1.953
1620953682.630,15.625,35.645,32.227,20.996,54.688
1620953682.634,23.438,36.621,33.691,26.367,20.020
1620953682.638,30.273,36.133,35.645,32.715,-4.883
1620953682.641,23.926,33.203,33.203,22.461,45.898
1620953682.645,15.137,26.367,28.809,15.625,45.410
1620953682.649,15.625,22.461,27.832,21.484,64.453
1620953682.653,20.996,22.949,28.809,31.738,45.898
1620953682.657,10.254,25.391,25.879,33.691,20.020
1620953682.651,7.812,26.367,27.832,24.414,15.625
1620953682.655,13.672,29.297,35.156,26.855,-20.508
1620953682.659,23.438,29.297,37.598,33.691,-16.113
1620953682.663,22.949,27.344,37.109,35.645,29.785
1620953682.667,7.324,25.879,35.156,34.180,37.598
1620953682.671,-0.977,22.461,35.645,31.738,12.695
1620953682.675,4.883,23.438,35.156,24.902,35.645
1620953682.678,4.395,24.902,35.645,24.902,9.277
1620953682.682,8.789,25.391,39.062,18.066,-20.508
1620953682.686,18.066,28.809,37.109,6.836,4.395
1620953682.690,25.879,32.227,38.574,16.602,32.227
1620953682.694,40.527,31.738,42.969,33.691,-13.184
1620953682.708,47.363,30.273,44.434,36.133,-18.066
1620953682.712,44.434,27.832,39.551,29.297,32.715
1620953682.716,33.691,24.902,34.180,24.902,25.879
1620953682.720,35.645,24.902,35.156,28.320,-13.184
1620953682.724,49.805,28.320,39.551,35.645,-30.762
1620953682.728,42.969,33.203,43.457,33.691,-3.906
1620953682.732,24.414,35.156,41.992,26.855,-18.555
1620953682.735,21.973,34.180,43.457,28.809,-2.930
1620953682.739,25.879,33.691,41.992,33.203,34.180
1620953682.743,27.344,37.598,40.039,31.250,8.789
1620953682.747,19.043,33.203,41.504,24.902,31.738
1620953682.751,15.137,29.297,36.133,23.926,66.406
1620953682.746,18.066,30.273,31.250,34.668,68.848
1620953682.750,18.066,26.367,32.715,35.645,48.340
1620953682.754,20.020,28.320,38.086,35.156,14.160
1620953682.758,20.996,25.879,35.645,28.809,12.695
1620953682.762,20.020,28.809,30.273,22.949,2.930
1620953682.766,26.855,33.203,32.715,29.785,31.250
1620953682.770,33.203,31.250,34.668,24.902,37.109
1620953682.773,30.762,31.738,37.109,23.438,13.672
1620953682.777,28.809,30.273,39.551,31.738,62.012
1620953682.781,27.832,29.785,40.527,34.180,66.895
1620953682.785,34.668,32.227,40.039,28.809,1.953
1620953682.789,30.762,31.738,41.016,30.273,31.738
1620953682.802,29.785,30.273,38.574,42.480,62.988
1620953682.806,39.551,31.738,36.621,46.875,8.301
1620953682.810,39.062,33.691,38.086,40.039,27.832
1620953682.814,38.086,36.621,37.598,27.344,46.387
1620953682.818,43.457,32.227,37.109,22.949,21.484
1620953682.822,44.922,31.738,38.086,28.809,51.270
1620953682.826,32.715,36.133,37.598,28.320,86.426
1620953682.829,17.090,33.203,37.109,16.113,0.488
1620953682.833,6.836,27.832,37.598,17.578,9.766
1620953682.837,4.883,31.738,37.598,26.367,82.031
1620953682.841,7.324,33.691,35.645,26.855,16.602
1620953682.845,1.953,26.855,36.621,17.090,-4.883
1620953682.839,-0.977,25.391,36.133,15.137,18.555
1620953682.843,2.441,25.879,36.133,28.809,-18.066
1620953682.847,1.465,26.367,38.086,34.180,2.441
1620953682.851,14.160,26.367,37.109,31.738,29.297
1620953682.855,11.230,24.902,38.574,24.414,18.066
1620953682.859,15.625,25.391,39.062,29.297,4.883
1620953682.863,25.391,23.438,37.598,39.551,18.066
1620953682.866,27.344,24.902,36.621,33.203,15.137
1620953682.870,27.344,30.273,34.180,26.855,28.809
1620953682.874,26.855,30.762,39.062,30.762,49.805
1620953682.878,32.715,30.273,45.898,30.762,46.387
1620953682.882,28.320,28.809,42.480,27.344,11.719
1620953682.895,21.484,25.391,38.574,26.855,-26.855
1620953682.899,24.414,21.973,38.086,22.461,41.992
1620953682.903,24.414,21.973,37.109,20.996,16.113
1620953682.907,24.902,25.391,37.109,29.297,-26.855
1620953682.911,26.367,26.855,39.551,17.578,33.691
1620953682.915,23.438,27.832,36.621,11.719,2.441
1620953682.919,28.809,26.855,31.738,19.531,-1.953
1620953682.922,38.574,28.320,33.203,17.090,-19.043
1620953682.926,41.016,30.273,38.086,13.672,-49.316
1620953682.930,34.180,27.832,43.945,13.184,-8.789
1620953682.934,27.832,28.320,38.574,13.184,30.762
1620953682.938,35.645,27.832,30.273,15.625,42.480
1620953682.933,41.016,28.809,33.691,20.508,34.180
1620953682.937,32.715,28.809,38.086,17.090,37.109
1620953682.941,28.320,29.297,37.109,23.438,34.180
1620953682.945,25.391,33.691,34.180,38.574,37.598
1620953682.949,22.461,35.156,34.668,33.203,43.945
1620953682.953,12.695,34.668,36.133,26.367,36.621
1620953682.957,5.859,33.691,34.180,20.508,60.059
1620953682.960,6.348,35.156,37.598,30.273,47.363
1620953682.964,13.184,32.227,37.598,44.434,45.898
1620953682.968,27.832,34.180,37.598,51.270,32.227
1620953682.972,10.254,32.715,42.480,36.133,-20.020
1620953682.976,-15.137,24.414,43.457,12.207,-80.566
1620953682.989,-9.766,26.367,43.945,14.648,2.441
1620953682.993,-16.113,25.879,41.016,8.301,87.891
1620953682.997,-30.273,26.367,42.969,-12.207,38.574
1620953683.001,-23.438,31.738,42.969,-18.555,42.969
1620953683.005,-12.695,26.855,37.598,-15.137,45.410
1620953683.009,-19.531,22.949,38.086,-23.438,38.086
1620953683.013,-34.668,26.855,36.621,-28.809,33.203
1620953683.016,-32.227,24.902,34.668,-22.461,39.062
1620953683.020,-20.996,20.508,35.645,-7.812,0.000
1620953683.024,-12.695,23.438,40.527,6.836,12.207
1620953683.028,-9.277,25.391,42.480,8.301,17.090
1620953683.032,-2.930,24.414,38.574,7.324,-47.363
1620953683.028,7.812,23.926,33.203,6.836,-41.504
1620953683.032,15.625,22.461,33.691,11.719,60.059
1620953683.036,16.113,24.902,33.203,11.230,78.125
1620953683.040,18.066,25.879,28.320,3.418,34.180
1620953683.044,34.668,28.809,28.320,12.695,45.898
1620953683.048,39.062,34.668,25.391,20.508,44.434
1620953683.052,33.203,35.645,20.508,20.020,36.621
1620953683.055,32.227,33.691,22.461,20.996,-14.648
1620953683.059,29.785,34.668,21.973,20.508,0.977
1620953683.063,33.203,29.297,20.020,23.438,36.133
1620953683.067,30.762,25.391,24.902,26.855,41.992
1620953683.071,17.578,24.902,26.855,24.414,15.137
1620953683.084,13.184,24.902,26.855,27.832,5.371
1620953683.088,19.043,26.367,33.203,39.551,16.113
1620953683.092,23.438,26.855,39.062,43.457,39.062
1620953683.096,16.113,26.367,43.457,40.039,107.910
1620953683.100,10.254,22.461,41.016,40.527,42.969
1620953683.104,15.625,25.879,35.156,40.039,-41.504
1620953683.108,28.320,32.715,32.715,33.203,-50.781
1620953683.111,35.645,35.156,31.250,23.926,36.621
1620953683.115,36.621,36.133,31.250,13.184,97.168
1620953683.119,35.645,33.691,31.738,18.066,17.090
1620953683.123,38.574,38.086,35.156,30.762,43.457
1620953683.127,25.391,37.109,32.715,26.855,59.570
1620953683.120,11.719,29.785,23.926,13.672,16.602
1620953683.124,17.090,31.738,19.531,14.648,-2.441
1620953683.128,24.414,34.180,20.020,28.320,-0.488
1620953683.132,23.438,32.715,20.508,25.879,13.184
1620953683.136,19.043,32.715,17.090,15.137,17.578
1620953683.140,24.414,34.668,20.020,18.066,6.836
1620953683.144,36.133,33.691,24.902,28.320,-39.062
1620953683.147,39.062,33.203,26.855,29.297,-36.133
1620953683.151,23.438,40.039,28.320,20.508,1.465
1620953683.155,8.789,38.086,26.855,15.625,21.973
1620953683.159,14.160,33.203,21.973,21.484,89.844
1620953683.163,24.414,34.180,21.484,26.367,108.887
1620953683.176,20.996,34.180,17.090,21.973,94.238
1620953683.180,15.137,35.156,12.695,28.809,77.148
1620953683.184,22.461,38.086,16.113,39.551,20.996
1620953683.188,29.297,41.504,20.996,40.527,38.086
1620953683.192,31.250,41.992,21.484,42.969,33.203
1620953683.196,23.926,36.621,22.949,39.062,-11.230
1620953683.200,25.879,32.715,23.926,27.344,36.621
1620953683.203,38.574,40.527,26.855,31.250,64.453
1620953683.207,40.527,40.039,24.902,31.250,-22.949
1620953683.211,38.086,36.133,16.602,18.066,-35.156
1620953683.215,28.320,39.062,15.625,15.625,1.465
1620953683.219,33.691,37.598,21.973,25.391,4.395
1620953683.214,42.480,36.133,27.344,24.414,2.441
1620953683.218,36.621,33.691,26.855,18.066,-36.621
1620953683.222,36.133,32.715,31.250,23.438,22.949
1620953683.226,35.156,38.086,33.691,30.273,39.062
1620953683.230,20.508,36.621,28.809,31.250,-5.859
1620953683.234,13.184,30.762,27.344,29.297,-18.066
1620953683.238,20.508,31.250,27.344,19.043,7.812
1620953683.241,16.602,33.691,26.367,23.438,71.289
1620953683.245,4.395,31.738,27.344,35.156,63.965
1620953683.249,4.883,29.785,30.273,31.738,24.902
1620953683.253,3.418,28.320,29.785,32.227,-1.465
1620953683.257,9.766,27.832,27.344,38.086,-30.273
1620953683.270,20.020,29.785,33.691,37.109,-13.672
1620953683.274,26.855,29.785,32.227,36.133,42.969
1620953683.278,29.297,27.832,23.926,32.227,54.199
1620953683.282,29.297,27.344,21.484,24.414,59.570
1620953683.286,27.832,27.832,21.484,30.762,61.523
1620953683.290,27.344,25.391,20.996,38.574,5.859
1620953683.294,27.344,27.344,20.996,31.738,16.113
1620953683.297,22.949,28.320,21.484,24.414,37.109
1620953683.301,18.555,22.461,20.020,22.461,-1.953
1620953683.305,26.367,20.996,18.555,21.484,31.738
1620953683.309,19.043,23.438,23.438,13.672,56.641
1620953683.313,7.812,22.949,28.320,5.859,38.574
1620953683.309,9.277,23.926,23.438,7.324,33.691
1620953683.313,12.207,25.391,27.832,9.766,27.344
1620953683.317,8.301,25.391,32.715,5.859,-19.043
1620953683.321,-3.906,29.297,31.738,0.488,-27.832
1620953683.325,-6.348,27.832,34.180,9.277,23.438
1620953683.329,5.371,18.555,34.180,21.484,0.000
1620953683.333,19.043,20.508,33.203,22.461,-30.762
1620953683.336,24.414,24.414,33.691,21.484,-3.906
1620953683.340,20.508,26.367,35.156,25.879,12.207
1620953683.344,24.414,27.344,34.668,33.691,-16.602
1620953683.348,42.480,29.785,34.668,41.992,26.367
1620953683.352,41.016,30.762,32.715,38.086,54.688
1620953683.365,25.391,25.879,28.809,38.086,77.148
1620953683.369,25.879,26.855,25.879,51.758,99.609
1620953683.373,17.090,32.715,32.227,41.992,60.547
1620953683.377,5.859,36.133,37.598,23.926,63.965
1620953683.381,13.672,33.203,34.180,25.391,19.043
1620953683.385,16.113,30.762,30.273,28.320,-22.949
1620953683.389,23.926,34.668,27.832,31.738,-2.441
1620953683.392,29.297,31.250,30.762,39.062,46.387
1620953683.396,22.949,25.879,31.738,32.715,65.430
1620953683.400,18.555,23.926,26.855,23.926,16.113
1620953683.404,17.090,21.484,26.855,27.344,99.609
1620953683.408,21.484,22.461,25.879,29.297,98.145
1620953683.401,19.043,20.996,26.855,26.855,8.301
1620953683.405,13.672,22.461,31.738,18.555,11.719
1620953683.409,24.414,26.367,29.785,21.973,47.852
1620953683.413,32.227,24.902,31.738,32.715,61.035
1620953683.417,25.391,22.461,38.086,20.996,-2.930
1620953683.421,16.113,24.414,38.574,15.137,-10.742
1620953683.425,16.113,24.414,34.668,20.996,5.859
1620953683.428,30.273,24.902,31.738,25.879,-34.668
1620953683.432,36.133,26.367,31.250,32.227,41.992
1620953683.436,20.996,29.785,32.227,26.367,51.758
1620953683.440,11.230,29.785,29.785,28.320,-4.883
1620953683.444,17.578,27.832,28.809,46.387,-13.184
1620953683.457,17.578,28.320,30.273,43.945,-40.527
1620953683.461,20.508,25.391,25.391,28.809,19.531
1620953683.465,22.949,21.973,26.855,27.344,47.363
1620953683.469,26.367,24.414,30.762,27.344,25.391
1620953683.473,36.621,29.297,28.809,26.367,-17.578
1620953683.477,35.156,31.250,30.273,16.602,17.578
1620953683.481,35.156,29.297,30.762,12.207,68.359
1620953683.484,39.062,25.391,27.344,15.625,1.953
1620953683.488,32.715,29.785,31.250,18.066,-40.039
1620953683.492,34.668,34.180,32.227,16.113,0.488
1620953683.496,41.992,35.645,26.855,5.371,63.477
1620953683.500,39.551,32.227,24.902,11.230,36.133
1620953683.495,25.391,32.715,23.438,16.113,-30.762
1620953683.499,21.484,35.156,24.902,14.648,-9.766
1620953683.503,20.020,32.715,27.344,16.602,10.254
1620953683.507,12.207,33.691,25.879,16.113,32.227
1620953683.511,17.090,32.715,26.855,28.809,36.621
1620953683.515,15.137,27.832,31.250,42.480,1.953
1620953683.519,6.348,29.297,34.180,30.762,6.348
1620953683.522,4.883,28.320,37.598,20.508,35.156
1620953683.526,8.789,25.391,35.645,33.203,-23.438
1620953683.530,11.719,22.461,32.715,33.691,-15.625
1620953683.534,16.113,21.973,33.203,26.855,44.922
1620953683.538,10.742,25.391,30.273,26.855,49.316
1620953683.551,11.230,22.461,27.832,26.367,88.867
1620953683.555,18.555,19.043,27.344,36.133,36.133
1620953683.559,25.391,20.996,30.762,37.109,-31.250
1620953683.563,28.320,24.902,36.621,26.367,34.180
1620953683.567,29.297,26.855,34.668,32.715,51.758
1620953683.571,32.715,27.344,32.227,44.922,-6.836
1620953683.575,39.062,27.344,36.621,46.875,-26.367
1620953683.578,43.457,30.762,37.598,36.133,-43.457
1620953683.582,48.828,37.598,37.109,36.621,-7.324
1620953683.586,50.293,37.109,40.039,49.805,-9.766
1620953683.590,36.133,34.180,41.504,47.852,29.785
1620953683.594,26.367,35.156,39.062,39.551,46.875
1620953683.590,23.438,36.133,37.598,40.527,45.410
1620953683.594,30.762,33.691,35.645,47.363,86.426
1620953683.598,36.133,33.691,35.645,49.316,57.617
1620953683.602,14.648,35.156,36.621,43.945,70.312
1620953683.606,13.672,30.273,35.645,31.250,63.477
1620953683.610,26.367,27.832,35.156,23.926,14.160
1620953683.614,23.926,33.203,37.109,26.855,19.531
1620953683.617,25.391,29.297,38.086,31.250,39.551
1620953683.621,22.949,26.367,39.062,30.762,59.082
1620953683.625,21.973,32.227,40.527,19.043,17.090
1620953683.629,25.879,31.250,40.039,13.672,-33.691
1620953683.633,17.090,28.809,36.621,12.695,-18.066
1620953683.646,12.695,27.344,40.527,15.137,3.418
1620953683.650,19.043,26.367,41.016,13.184,31.738
1620953683.654,24.902,25.879,35.645,16.602,27.344
1620953683.658,21.973,27.832,29.297,29.785,5.859
1620953683.662,19.043,29.785,28.809,21.484,-0.488
1620953683.666,27.832,28.320,28.809,21.484,63.477
1620953683.670,31.738,28.320,26.367,38.574,88.867
1620953683.673,36.621,30.273,22.949,37.109,37.109
1620953683.677,33.203,29.785,24.414,30.273,12.695
1620953683.681,16.602,35.156,28.809,37.109,11.230
1620953683.685,23.926,37.598,30.762,39.551,63.477
1620953683.689,34.180,36.621,31.738,40.039,27.344
1620953683.683,32.715,36.133,30.273,38.086,6.836
1620953683.687,27.344,30.762,34.180,27.832,51.758
1620953683.691,35.645,30.762,39.062,29.297,-17.090
1620953683.695,44.434,32.227,30.762,33.691,-16.602
1620953683.699,35.156,27.344,26.855,25.879,70.801
1620953683.703,27.344,24.902,26.367,16.113,60.059
1620953683.707,21.973,24.902,29.785,21.484,22.949
1620953683.710,25.879,25.391,36.621,34.180,45.410
1620953683.714,24.902,27.344,34.180,37.598,104.004
1620953683.718,15.625,28.320,31.738,24.902,61.523
1620953683.722,14.160,26.367,32.715,19.043,-5.371
1620953683.726,20.020,27.344,25.391,26.367,13.672
1620953683.739,28.809,25.391,21.484,22.949,-0.488
1620953683.743,30.762,25.879,30.273,24.902,22.949
1620953683.747,16.602,29.785,36.133,22.461,69.824
1620953683.751,4.395,22.949,36.133,26.367,66.895
1620953683.755,9.277,21.973,34.668,37.109,21.973
1620953683.759,7.812,24.902,31.250,30.762,75.195
1620953683.763,5.371,20.996,32.715,21.973,97.168
1620953683.766,17.090,20.508,36.621,16.602,20.508
1620953683.770,22.461,24.902,37.109,20.996,-7.812
1620953683.774,28.809,22.461,34.668,28.809,15.137
1620953683.778,33.203,18.555,26.855,23.926,34.180
1620953683.782,31.738,21.973,25.391,17.090,42.969
1620953683.776,34.180,29.297,26.855,14.648,5.859
1620953683.780,33.203,30.762,25.391,11.230,-78.613
1620953683.784,23.926,27.344,23.926,7.812,-78.613
1620953683.788,21.484,32.227,25.879,9.277,20.508
1620953683.792,22.461,36.621,23.926,18.066,40.039
1620953683.796,23.438,36.133,23.926,24.902,55.664
1620953683.800,27.832,36.133,21.973,15.137,73.730
1620953683.803,23.438,32.227,17.578,8.301,53.711
1620953683.807,25.391,27.832,20.508,17.578,11.230
1620953683.811,20.996,29.785,28.320,32.227,-3.906
1620953683.815,9.277,25.391,33.203,27.344,52.246
1620953683.819,10.254,20.508,37.109,21.973,78.125
1620953683.833,8.301,22.949,41.504,30.762,41.992
1620953683.837,8.789,21.484,42.480,34.180,1.465
1620953683.841,8.789,16.602,42.969,34.668,17.090
1620953683.845,11.719,22.461,38.574,27.344,48.828
1620953683.849,14.160,24.414,40.039,21.484,75.684
1620953683.853,20.996,23.438,38.574,28.809,26.367
1620953683.857,25.879,25.391,33.203,36.621,-29.785
1620953683.860,10.254,23.926,30.762,26.367,44.922
1620953683.864,-0.488,23.926,29.297,17.090,60.059
1620953683.868,10.254,27.344,28.809,21.973,12.695
1620953683.872,14.648,32.227,26.855,22.949,-11.230
1620953683.876,16.113,33.691,26.855,23.926,5.859
1620953683.871,18.066,27.832,30.273,20.996,-3.906
1620953683.875,13.184,29.785,37.598,18.555,22.949
1620953683.879,20.996,36.133,44.434,37.109,76.172
1620953683.883,27.344,36.133,36.133,34.668,50.781
1620953683.887,22.949,33.203,27.344,22.461,28.809
1620953683.891,24.902,32.715,28.320,27.344,-12.695
1620953683.895,30.273,33.203,28.809,36.621,37.109
1620953683.898,33.203,33.691,26.367,33.203,41.504
1620953683.902,31.250,30.762,29.297,18.555,-0.488
1620953683.906,23.926,27.832,36.133,13.184,53.711
1620953683.910,22.949,28.809,37.109,19.531,24.414
1620953683.914,26.367,31.738,37.109,26.855,11.719
1620953683.927,22.949,33.203,33.691,20.020,-2.930
1620953683.931,22.461,34.180,31.738,16.602,63.477
1620953683.935,30.762,31.738,33.203,25.879,77.637
1620953683.939,37.109,30.273,32.715,36.133,-23.926
1620953683.943,43.945,34.668,28.809,33.691,1.953
1620953683.947,39.551,35.156,29.297,34.668,15.625
1620953683.951,23.438,32.227,32.715,37.109,16.113
1620953683.954,18.555,31.250,29.785,38.574,19.043
1620953683.958,20.020,26.367,30.762,40.527,-3.906
1620953683.962,17.090,26.855,28.809,30.273,5.859
1620953683.966,15.625,32.715,26.367,21.484,-24.414
1620953683.970,25.391,29.785,29.785,22.461,34.668
1620953683.964,24.902,26.855,32.715,26.855,50.781
1620953683.968,20.020,33.203,33.691,20.996,-14.160
1620953683.972,8.789,30.762,32.715,17.090,2.930
1620953683.976,8.301,25.391,32.227,20.020,15.137
1620953683.980,22.949,24.414,32.715,20.996,9.766
1620953683.984,13.672,25.879,38.086,23.926,-4.883
1620953683.988,14.160,33.203,45.410,27.832,13.672
1620953683.991,30.273,35.156,49.316,34.180,-15.137
1620953683.995,42.969,31.738,47.852,37.598,-9.277
1620953683.999,38.086,29.297,45.410,38.574,15.625
1620953684.003,28.809,33.203,43.457,28.320,25.879
1620953684.007,29.785,36.621,41.992,27.832,12.207
1620953684.020,30.762,30.762,36.621,29.297,21.973
1620953684.024,21.484,29.297,29.785,21.973,35.645
1620953684.028,16.602,31.738,29.785,20.508,26.367
1620953684.032,17.090,34.180,35.645,24.414,14.648
1620953684.036,16.113,36.621,34.668,36.133,17.090
1620953684.040,24.902,36.621,33.203,39.551,42.969
1620953684.044,26.367,34.180,32.715,28.809,30.273
1620953684.047,18.555,34.668,27.832,24.414,40.527
1620953684.051,21.973,33.691,30.762,33.203,37.109
1620953684.055,34.668,29.785,34.180,40.039,24.414
1620953684.059,34.668,29.785,29.785,33.203,20.996
1620953684.063,32.715,31.738,30.273,23.926,6.836
1620953684.058,35.156,31.250,34.668,24.902,29.297
1620953684.062,37.598,31.250,34.180,21.973,65.918
1620953684.066,33.691,32.715,37.109,18.066,48.828
1620953684.070,28.809,31.738,37.109,17.578,10.254
1620953684.074,36.621,32.715,38.574,19.043,45.898
1620953684.078,35.156,33.691,41.504,26.367,79.102
1620953684.082,16.602,32.227,36.133,24.414,42.969
1620953684.085,5.371,31.738,36.133,10.742,0.977
1620953684.089,13.184,33.691,33.691,14.160,15.625
1620953684.093,22.949,34.668,31.738,26.855,-13.672
1620953684.097,28.320,34.180,33.691,27.344,-5.371
1620953684.101,17.090,37.598,31.738,23.926,6.836
1620953684.114,7.812,38.086,34.180,28.809,42.480
1620953684.118,3.418,36.621,35.645,35.156,83.984
1620953684.122,9.277,44.434,37.109,37.109,26.855
1620953684.126,13.672,42.969,35.156,37.109,2.441
1620953684.130,12.695,33.691,28.320,29.785,33.691
1620953684.134,19.531,36.621,23.438,30.762,78.125
1620953684.138,27.344,39.062,19.531,42.969,20.996
1620953684.141,29.297,36.621,22.949,46.875,32.715
1620953684.145,25.391,41.016,25.391,33.203,43.945
1620953684.149,30.273,41.992,27.832,26.855,22.461
1620953684.153,35.645,39.551,32.227,33.203,36.621
1620953684.157,34.668,38.086,31.738,27.344,-22.949
1620953684.152,32.715,38.086,25.879,21.484,10.254
1620953684.156,38.086,39.551,25.391,21.973,97.656
1620953684.160,44.434,41.504,29.297,25.391,53.711
1620953684.164,38.086,40.039,28.320,27.344,45.410
1620953684.168,23.926,33.691,29.297,24.902,47.852
1620953684.172,17.578,31.250,32.715,15.625,-8.301
1620953684.176,21.973,32.227,34.180,14.648,-26.855
1620953684.179,21.484,30.273,29.297,22.461,-17.578
1620953684.183,14.648,27.832,21.973,11.230,45.410
1620953684.187,2.930,28.809,25.391,6.836,38.574
1620953684.191,4.883,29.297,25.391,15.137,-14.648
1620953684.195,20.020,28.320,18.066,29.785,-19.531
1620953684.209,30.273,25.391,19.043,40.527,-15.137
1620953684.213,21.484,28.320,24.902,38.086,28.809
1620953684.217,27.832,27.832,27.344,42.969,23.926
1620953684.221,44.434,25.879,27.344,54.688,-28.320
1620953684.225,32.715,22.949,31.250,52.246,-3.418
1620953684.229,21.484,22.949,31.738,42.480,33.203
1620953684.233,20.996,21.484,32.227,35.645,47.363
1620953684.236,16.602,22.949,31.738,36.621,-10.742
1620953684.240,14.648,32.227,31.738,44.922,-39.062
1620953684.244,14.160,31.250,31.738,35.645,35.645
1620953684.248,15.137,23.438,31.250,23.438,7.812
1620953684.252,19.043,22.461,30.762,28.320,5.371
1620953684.245,32.715,27.344,33.203,31.738,24.902
1620953684.249,33.691,32.715,33.203,20.508,-3.418
1620953684.253,21.973,29.785,23.926,10.254,33.203
1620953684.257,24.414,24.902,18.066,20.020,89.355
1620953684.261,28.809,22.949,23.926,26.855,66.406
1620953684.265,19.043,22.949,30.762,22.461,-11.230
1620953684.269,15.137,22.461,29.785,18.066,-15.137
1620953684.272,11.719,20.996,31.250,20.020,30.273
1620953684.276,18.066,22.949,35.645,27.832,22.461
1620953684.280,31.250,25.391,37.109,24.414,7.812
1620953684.284,24.902,25.391,34.180,19.531,-20.996
1620953684.288,14.160,22.949,32.227,18.555,-2.441
1620953684.301,12.207,24.902,32.715,18.555,74.219
1620953684.305,25.391,20.996,34.668,23.926,65.430
1620953684.309,23.438,17.578,38.086,14.648,-3.906
1620953684.313,4.883,19.043,37.598,9.277,2.930
1620953684.317,8.789,18.555,36.133,16.113,22.949
1620953684.321,20.020,22.461,37.598,25.879,34.668
1620953684.325,20.996,25.879,40.527,30.273,59.570
1620953684.328,14.648,28.320,39.062,21.484,22.461
1620953684.332,18.066,28.809,35.645,20.996,-3.906
1620953684.336,29.297,27.832,32.227,30.762,-15.137
1620953684.340,29.297,28.809,32.715,31.250,-14.160
1620953684.344,28.809,29.785,37.109,20.020,-14.648
1620953684.339,33.203,33.203,41.504,13.184,-5.371
1620953684.343,30.762,33.691,42.480,10.254,5.371
1620953684.347,38.574,31.250,39.062,15.625,70.801
1620953684.351,39.062,34.668,36.133,8.301,53.223
1620953684.355,18.555,32.715,33.203,3.906,19.043
1620953684.359,-0.488,29.785,35.156,16.602,18.555
1620953684.363,-9.277,27.832,35.645,25.879,85.938
1620953684.366,-5.859,24.414,34.180,25.391,63.477
1620953684.370,-4.395,26.855,33.203,13.184,-16.113
1620953684.374,-2.441,28.320,30.273,20.020,37.109
1620953684.378,5.371,24.414,33.691,38.086,36.133
1620953684.382,14.160,22.949,35.645,34.180,37.598
1620953684.395,18.555,25.391,32.227,17.578,66.895
1620953684.399,19.043,25.391,32.715,16.602,29.785
1620953684.403,17.578,21.973,31.738,15.137,24.902
1620953684.407,17.090,24.902,27.832,12.695,92.773
1620953684.411,18.555,25.879,29.297,13.672,56.641
1620953684.415,19.043,25.391,34.180,13.184,-5.859
1620953684.419,25.879,34.180,37.109,21.973,37.109
1620953684.422,32.227,34.180,35.156,32.227,15.625
1620953684.426,20.996,28.320,35.645,29.785,-4.883
1620953684.430,19.531,28.320,36.133,24.902,36.133
1620953684.434,30.273,28.809,31.738,36.621,45.410
1620953684.438,35.645,31.250,34.180,48.828,39.062
1620953684.434,32.715,32.227,35.645,39.551,16.113
1620953684.438,33.203,35.156,33.691,35.156,8.301
1620953684.442,41.504,40.039,36.621,43.945,-11.230
1620953684.446,51.270,38.086,38.574,46.875,10.254
1620953684.450,43.945,36.133,34.668,42.969,6.348
1620953684.454,30.273,36.621,33.691,31.738,-5.859
1620953684.458,25.391,32.227,37.109,29.297,37.598
1620953684.461,22.949,31.738,42.480,38.086,20.996
1620953684.465,26.855,34.668,44.922,41.504,26.855
1620953684.469,21.484,31.738,39.551,32.715,14.648
1620953684.473,12.695,30.273,38.574,31.738,-52.246
1620953684.477,19.531,33.203,38.574,33.691,-15.137
1620953684.490,20.508,32.715,40.039,29.297,37.598
1620953684.494,16.113,33.691,45.410,23.438,12.695
1620953684.498,14.648,38.086,41.992,12.207,-16.113
1620953684.502,16.602,40.039,40.039,14.160,-13.184
1620953684.506,26.855,37.109,37.598,24.414,74.219
1620953684.510,37.109,37.109,31.250,27.832,44.434
1620953684.514,24.902,36.133,29.785,29.297,-4.883
1620953684.517,15.137,34.180,32.227,23.438,32.227
1620953684.521,35.156,36.133,37.109,26.367,39.551
1620953684.525,40.527,37.598,39.062,28.809,35.645
1620953684.529,22.461,35.156,35.645,22.949,48.340
1620953684.533,4.883,35.645,32.227,20.508,27.832
1620953684.526,12.695,37.598,32.715,27.832,38.086
1620953684.530,23.438,35.645,33.203,34.668,63.477
1620953684.534,16.602,34.180,34.180,32.715,14.648
1620953684.538,19.043,34.180,31.250,29.785,-6.836
1620953684.542,27.344,34.668,33.691,36.133,45.410
1620953684.546,32.227,35.645,38.086,39.551,6.348
1620953684.550,30.762,35.645,27.344,29.297,-8.301
1620953684.553,25.391,36.621,21.973,20.508,38.086
1620953684.557,24.902,38.086,24.414,28.320,60.547
1620953684.561,30.273,39.551,26.367,33.691,53.223
1620953684.565,23.438,42.969,25.879,24.902,-21.973
1620953684.569,22.949,38.086,21.484,17.090,-30.762
1620953684.583,23.926,28.809,18.066,24.414,36.621
1620953684.587,17.578,29.785,20.508,40.039,85.449
1620953684.591,22.949,29.785,29.297,38.086,46.387
1620953684.595,25.879,31.738,35.645,32.227,36.133
1620953684.599,20.508,32.227,34.668,29.785,28.320
1620953684.603,19.043,33.203,35.156,30.273,-7.812
1620953684.607,35.156,33.691,36.133,38.574,9.277
1620953684.610,31.250,35.645,30.762,25.879,47.852
1620953684.614,17.090,35.645,28.320,18.555,35.156
1620953684.618,31.250,34.180,29.297,34.180,5.371
1620953684.622,40.527,34.668,29.297,40.527,3.418
1620953684.626,41.504,32.227,27.832,35.645,12.695
1620953684.620,37.109,34.180,27.344,28.320,20.996
1620953684.624,36.621,34.180,29.785,25.879,-9.766
1620953684.628,32.227,29.297,28.809,26.855,23.926
1620953684.632,20.020,28.320,28.809,28.809,44.434
1620953684.636,20.508,31.738,28.809,28.320,45.410
1620953684.640,17.578,32.715,25.879,26.367,73.242
1620953684.644,20.508,28.809,21.484,28.809,31.738
1620953684.647,28.809,28.320,18.555,28.320,7.324
1620953684.651,21.973,32.227,22.461,21.484,49.805
1620953684.655,17.578,31.738,26.855,20.996,81.055
1620953684.659,30.273,34.180,21.484,26.855,25.391
1620953684.663,35.156,34.180,22.461,33.203,-1.465
1620953684.676,29.297,28.809,28.320,33.203,44.922
1620953684.680,24.902,32.227,27.344,26.855,22.949
1620953684.684,23.926,33.691,23.926,24.902,-37.598
1620953684.688,32.715,31.738,26.855,38.574,-29.785
1620953684.692,25.391,29.297,29.785,38.574,9.277
1620953684.696,13.184,28.320,26.855,26.855,7.812
1620953684.700,22.949,29.785,30.762,31.738,27.832
1620953684.703,22.949,32.227,35.156,38.574,34.668
1620953684.707,19.043,31.250,35.156,36.133,19.043
1620953684.711,19.531,28.809,31.738,28.809,21.484
1620953684.715,20.508,27.344,27.832,22.461,78.613
1620953684.719,25.391,27.832,31.250,28.809,75.684
1620953684.715,22.461,31.738,29.297,20.996,-30.762
1620953684.719,14.648,27.832,28.809,4.883,-48.828
1620953684.723,16.113,24.414,29.297,2.930,0.977
1620953684.727,18.555,25.879,24.902,6.348,24.414
1620953684.731,21.973,25.391,24.902,18.555,4.883
1620953684.735,18.555,25.391,25.879,20.508,-24.414
1620953684.739,9.277,24.414,27.344,13.672,-30.273
1620953684.742,8.789,24.414,33.203,34.668,34.668
1620953684.746,15.625,26.855,35.156,46.875,82.031
1620953684.750,11.719,31.250,30.273,27.344,29.785
1620953684.754,7.812,32.715,28.320,19.043,44.922
1620953684.758,2.930,29.297,23.926,16.113,17.090
1620953684.771,0.000,29.785,23.438,11.719,-42.480
1620953684.775,5.859,35.645,25.879,10.742,-11.230
1620953684.779,12.207,38.086,24.902,10.254,14.648
1620953684.783,18.555,37.598,21.973,3.418,88.379
1620953684.787,30.762,35.645,22.949,6.836,112.793
1620953684.791,36.133,38.086,22.949,16.602,22.461
1620953684.795,32.715,40.039,22.461,13.672,-23.926
1620953684.798,24.902,36.621,24.414,13.672,46.387
1620953684.802,27.344,34.180,22.461,25.391,46.387
1620953684.806,39.062,33.691,22.949,34.668,-51.270
1620953684.810,32.227,36.133,18.555,36.621,-29.297
1620953684.814,14.648,35.156,16.113,31.250,37.109
1620953684.809,11.230,29.297,14.648,17.090,24.414
1620953684.813,16.602,27.832,14.160,20.020,36.621
1620953684.817,20.508,30.273,19.531,23.438,70.312
1620953684.821,22.461,35.156,30.762,25.391,57.129
1620953684.825,24.902,41.016,39.551,27.344,12.207
1620953684.829,31.250,38.574,36.621,23.926,-16.113
1620953684.833,29.297,32.715,32.715,27.832,0.977
1620953684.836,13.184,32.715,32.227,35.645,-30.762
1620953684.840,5.859,34.180,29.785,39.551,-11.230
1620953684.844,13.184,33.203,32.227,35.645,2.930
1620953684.848,25.879,30.762,35.156,35.156,-20.508
1620953684.852,19.043,31.738,32.715,29.297,5.371
1620953684.864,8.789,32.715,28.320,16.602,-4.395
1620953684.868,19.531,32.715,28.320,20.508,21.973
1620953684.872,15.137,30.273,29.785,31.250,35.645
1620953684.876,11.230,27.344,27.344,21.973,41.504
1620953684.880,16.113,27.832,25.391,11.719,46.387
1620953684.884,22.949,28.809,25.391,15.625,-4.883
1620953684.888,26.855,29.297,27.344,24.414,16.113
1620953684.891,26.855,30.273,27.344,27.832,15.137
1620953684.895,28.809,31.250,24.414,20.996,-11.719
1620953684.899,36.133,24.414,25.391,27.832,7.324
1620953684.903,45.898,25.391,26.855,32.227,30.273
1620953684.907,36.133,29.785,30.762,32.715,20.020
1620953684.901,32.715,26.855,32.227,32.227,-8.789
1620953684.905,39.551,27.832,28.809,31.250,-39.062
1620953684.909,31.738,31.250,27.832,33.203,-21.484
1620953684.913,18.555,35.156,24.902,34.180,37.598
1620953684.917,19.043,37.109,20.996,29.297,43.457
1620953684.921,23.438,35.156,24.414,20.508,34.180
1620953684.925,23.438,34.668,27.344,21.484,33.203
1620953684.928,16.113,36.133,28.809,36.621,-1.465
1620953684.932,5.371,34.180,31.250,40.527,16.113
1620953684.936,8.301,34.668,36.621,26.367,68.359
1620953684.940,20.508,35.156,39.062,17.578,49.316
1620953684.944,32.715,33.691,36.133,20.020,20.020
1620953684.976,29.785,34.180,36.133,16.113,59.570
1620953684.980,7.324,28.320,39.062,3.906,71.777
1620953684.984,7.324,23.438,36.133,6.348,20.508
1620953684.988,27.832,26.367,33.203,20.508,-26.855
1620953684.992,21.973,29.785,36.621,22.949,15.625
1620953684.996,7.812,29.785,34.668,19.531,75.684
1620953685.000,8.301,29.297,31.250,17.090,99.121
1620953685.003,19.043,31.250,27.344,18.066,3.906
1620953685.007,32.715,32.227,25.391,25.879,-43.945
1620953685.011,30.762,34.180,32.715,26.367,-0.488
1620953685.015,28.809,33.691,31.738,25.879,6.836
1620953685.019,26.367,28.809,30.273,27.832,-0.488
1620953684.997,21.484,25.879,30.762,31.250,5.371
1620953685.001,22.949,28.320,29.785,35.645,23.438
1620953685.005,25.879,31.250,26.855,27.832,40.527
1620953685.009,16.602,27.344,22.461,28.320,48.340
1620953685.013,16.113,26.855,27.344,31.250,17.578
1620953685.017,14.648,28.809,26.367,29.785,6.836
1620953685.021,5.371,27.344,20.020,24.414,-2.441
1620953685.024,5.371,25.391,23.926,19.043,10.742
1620953685.028,11.719,24.414,30.273,29.297,41.504
1620953685.032,14.160,22.949,31.250,28.320,67.871
1620953685.036,12.207,22.461,28.320,11.719,78.613
1620953685.040,18.066,27.832,28.809,12.207,52.734
1620953685.052,22.461,26.367,32.227,22.949,9.277
1620953685.056,25.879,23.438,35.156,27.832,35.645
1620953685.060,24.902,24.902,33.203,24.414,53.223
1620953685.064,30.273,25.391,29.297,24.414,44.922
1620953685.068,38.574,28.320,26.367,32.227,41.016
1620953685.072,40.039,29.785,29.297,33.203,29.785
1620953685.076,39.551,31.738,32.715,25.879,-29.785
1620953685.079,22.461,28.809,32.715,22.461,-24.414
1620953685.083,10.254,26.855,35.156,23.926,45.898
1620953685.087,16.602,31.250,32.227,31.250,40.527
1620953685.091,19.043,31.738,25.879,31.738,24.414
1620953685.095,18.555,27.832,31.250,26.855,37.109
1620953685.089,9.766,22.461,34.180,22.461,1.953
1620953685.093,0.000,20.020,29.785,21.484,-22.461
1620953685.097,8.789,20.508,30.273,28.320,2.441
1620953685.101,17.578,23.438,35.645,29.297,-31.738
1620953685.105,12.695,23.438,36.133,25.879,-33.691
1620953685.109,11.230,25.391,35.156,31.250,-12.207
1620953685.113,18.555,26.855,32.227,32.715,-27.344
1620953685.116,23.926,26.367,31.738,18.555,26.855
1620953685.120,19.531,28.320,32.227,9.766,61.035
1620953685.124,24.902,32.227,37.109,19.531,39.062
1620953685.128,25.391,35.156,39.551,27.344,31.738
1620953685.132,21.484,33.203,32.715,25.879,13.184
1620953685.145,20.020,32.715,34.668,24.414,60.547
1620953685.149,21.973,34.180,33.691,17.090,84.961
1620953685.153,39.062,32.715,31.738,22.949,28.809
1620953685.157,41.016,30.273,42.480,35.156,0.977
1620953685.161,32.715,27.344,43.945,32.227,11.230
1620953685.165,20.508,25.879,40.039,30.762,-16.602
1620953685.169,23.926,30.762,39.062,30.762,-28.809
1620953685.172,34.180,35.156,35.645,29.297,-27.344
1620953685.176,32.227,32.227,30.273,18.066,-53.223
1620953685.180,26.855,32.227,32.227,13.184,20.996
1620953685.184,22.949,34.668,36.621,21.484,85.449
1620953685.188,26.855,33.691,37.598,23.438,74.707
1620953685.183,17.090,33.203,38.086,21.973,49.805
1620953685.187,10.254,35.156,35.645,17.578,8.789
1620953685.191,11.719,32.715,34.180,13.672,33.691
1620953685.195,18.066,28.320,35.156,17.578,54.199
1620953685.199,25.391,26.367,34.668,22.461,12.207
1620953685.203,22.461,28.320,34.180,20.996,-3.418
1620953685.207,12.695,27.832,32.227,17.090,-31.250
1620953685.210,17.090,20.508,32.715,24.902,-23.926
1620953685.214,27.344,22.461,37.109,32.227,48.340
1620953685.218,23.438,25.879,36.133,33.203,108.887
1620953685.222,10.254,24.414,35.645,33.203,82.031
1620953685.226,5.371,28.809,38.086,32.715,-5.859
1620953685.239,13.672,35.156,38.574,36.621,11.230
1620953685.243,23.438,31.738,41.504,32.715,75.684
1620953685.247,21.484,32.227,41.992,19.531,56.152
1620953685.251,16.113,37.598,44.434,20.508,38.086
1620953685.255,18.066,37.598,48.340,27.832,80.078
1620953685.259,22.949,36.621,48.828,27.344,61.523
1620953685.263,23.438,34.180,45.410,17.090,-9.277
1620953685.266,26.855,32.715,40.039,8.301,-50.293
1620953685.270,25.391,36.133,37.109,9.766,-11.230
1620953685.274,22.949,38.086,35.156,9.277,34.668
1620953685.278,21.973,37.598,34.180,2.930,-4.883
1620953685.282,37.598,39.062,28.809,9.766,-19.043
1620953685.277,67.871,33.691,28.809,41.016,-0.488
1620953685.281,56.641,24.902,40.527,40.527,-6.348
1620953685.285,22.461,25.391,42.480,11.719,-12.207
1620953685.289,7.812,25.879,41.504,3.906,0.488
1620953685.293,15.137,23.438,41.016,19.043,28.320
1620953685.297,13.672,17.090,39.062,28.809,36.133
1620953685.301,-5.859,11.719,38.574,26.367,31.738
1620953685.304,-12.695,7.812,41.992,25.391,-6.348
1620953685.308,-5.859,3.906,44.434,30.273,-10.254
1620953685.312,8.789,4.395,44.434,44.922,20.508
1620953685.316,14.160,10.742,40.039,49.805,12.207
1620953685.320,8.301,14.648,36.133,37.109,-6.836
1620953685.334,10.742,17.090,35.156,39.551,35.645
1620953685.338,24.414,19.531,35.645,49.805,3.418
1620953685.342,39.551,19.531,39.551,46.387,-51.758
1620953685.346,29.785,21.484,39.551,41.992,34.668
1620953685.350,10.742,20.020,38.574,46.875,87.402
1620953685.354,5.371,13.184,40.527,53.223,30.762
1620953685.358,16.602,11.230,42.969,50.293,32.227
1620953685.361,13.672,13.672,38.574,33.691,55.176
1620953685.365,9.277,18.555,32.227,20.020,-5.859
1620953685.369,21.973,21.973,36.621,28.809,-30.762
1620953685.373,31.250,24.414,38.086,37.109,0.488
1620953685.377,31.250,23.438,29.785,30.273,22.461
1620953685.370,21.973,24.414,28.809,20.020,66.406
1620953685.374,22.461,28.809,31.738,23.926,56.641
1620953685.378,30.762,24.902,33.203,34.180,-49.805
1620953685.382,32.227,23.926,34.668,31.250,-55.176
1620953685.386,26.855,31.250,35.156,30.273,17.578
1620953685.390,22.949,27.344,31.738,30.273,47.852
1620953685.394,31.250,22.461,28.320,27.832,20.508
1620953685.397,29.785,26.367,26.367,32.227,-27.832
1620953685.401,23.438,29.785,23.926,30.762,-9.277
1620953685.405,25.391,30.762,21.973,21.484,76.172
1620953685.409,27.832,26.855,17.578,26.855,25.879
1620953685.413,33.203,25.879,21.973,37.598,16.113
1620953685.426,29.297,30.273,27.832,29.297,58.594
1620953685.430,16.113,30.762,29.297,25.391,38.574
1620953685.434,10.742,36.133,32.227,31.738,70.801
1620953685.438,24.414,41.016,31.250,38.086,84.961
1620953685.442,33.203,42.480,32.715,36.133,31.250
1620953685.446,23.926,43.457,35.645,30.762,-35.645
1620953685.450,20.508,42.480,39.551,25.879,24.902
1620953685.453,17.090,42.969,46.875,17.090,12.207
1620953685.457,23.438,41.992,51.270,19.043,4.395
1620953685.461,26.855,40.527,55.664,20.020,-1.953
1620953685.465,22.949,40.527,60.547,20.508,20.508
1620953685.469,35.156,38.086,65.430,33.203,43.457
1620953685.464,43.457,36.133,64.453,36.621,17.578
1620953685.468,38.574,36.621,62.500,32.227,50.293
1620953685.472,29.785,39.551,65.430,33.691,74.707
1620953685.476,35.645,41.016,61.523,38.086,36.133
1620953685.480,40.527,36.621,61.035,40.039,14.648
1620953685.484,34.180,38.086,61.523,31.250,86.426
1620953685.488,34.180,36.133,56.641,29.297,52.734
1620953685.491,28.809,31.738,54.199,32.227,18.066
1620953685.495,24.902,38.086,53.223,38.086,60.547
1620953685.499,29.297,43.457,53.711,35.645,24.902
1620953685.503,20.996,39.551,54.688,24.902,-56.641
1620953685.507,18.555,34.180,50.293,35.156,-1.465
1620953685.520,27.832,35.645,45.898,43.945,22.461
1620953685.524,28.320,35.156,48.828,35.645,-12.695
1620953685.528,24.414,30.762,50.293,28.320,38.574
1620953685.532,23.438,34.668,48.340,21.484,-9.766
1620953685.536,28.809,41.016,52.246,27.344,14.648
1620953685.540,32.227,42.969,53.711,31.250,30.762
1620953685.544,30.762,41.992,47.363,21.484,-2.441
1620953685.547,26.855,41.016,46.387,16.602,31.250
1620953685.551,29.785,38.086,45.410,23.438,0.488
1620953685.555,34.180,34.668,42.969,32.715,-25.879
1620953685.559,26.367,36.621,41.016,29.297,-8.301
1620953685.563,13.672,40.039,39.551,20.996,24.902
1620953685.559,7.324,35.645,40.527,25.391,43.945
1620953685.563,17.578,31.250,41.016,33.691,48.828
1620953685.567,30.762,34.668,40.527,32.715,9.766
1620953685.571,28.809,35.645,40.039,22.461,11.719
1620953685.575,22.949,31.250,38.086,23.438,-4.395
1620953685.579,33.691,31.738,39.551,36.133,-58.105
1620953685.583,43.457,37.109,39.551,37.598,-14.648
1620953685.586,35.645,38.574,39.551,36.621,14.648
1620953685.590,29.297,40.527,44.922,35.156,37.109
1620953685.594,28.320,45.410,41.016,28.320,37.109
1620953685.598,28.320,47.363,33.203,24.902,5.859
1620953685.602,31.250,48.340,31.738,20.996,-6.836
1620953685.615,29.297,48.340,33.691,15.137,-23.926
1620953685.619,26.855,46.875,30.762,17.578,-37.109
1620953685.623,32.715,43.457,29.297,27.832,-56.152
1620953685.627,31.250,42.480,29.785,27.832,-22.461
1620953685.631,19.531,47.363,30.273,18.555,32.227
1620953685.635,14.648,45.898,32.715,21.484,20.020
1620953685.639,22.949,37.109,33.691,30.762,38.574
1620953685.642,28.809,36.133,34.668,29.785,31.738
1620953685.646,25.391,36.621,34.668,23.926,-40.039
1620953685.650,14.648,34.668,36.133,29.297,-13.672
1620953685.654,20.508,33.691,36.133,40.039,-1.953
1620953685.658,32.227,35.645,33.691,44.434,20.508
1620953685.651,20.020,35.156,37.109,41.992,33.691
1620953685.655,10.254,28.809,37.598,30.273,27.344
1620953685.659,12.695,25.391,35.645,31.250,51.270
1620953685.663,21.484,27.344,36.133,39.062,53.711
1620953685.667,16.602,29.785,36.621,35.156,29.297
1620953685.671,14.160,27.344,36.133,31.738,21.484
1620953685.675,19.043,26.367,29.297,34.180,40.527
1620953685.678,20.996,29.785,26.855,36.133,34.668
1620953685.682,30.762,31.738,30.762,39.551,19.531
1620953685.686,22.461,29.785,30.762,33.691,24.902
1620953685.690,14.648,28.320,28.809,27.832,20.996
1620953685.694,25.391,27.344,29.297,34.668,12.695
1620953685.708,25.391,27.832,25.879,30.273,-46.875
1620953685.712,14.648,29.785,21.484,18.066,-6.348
1620953685.716,12.207,28.809,22.461,14.648,70.801
1620953685.720,21.973,25.391,21.484,18.066,22.949
1620953685.724,18.066,27.344,24.414,20.020,6.836
1620953685.728,13.184,23.926,25.879,15.625,90.332
1620953685.732,11.230,22.949,25.879,8.301,34.180
1620953685.735,8.301,30.762,27.832,10.742,2.930
1620953685.739,15.625,31.250,31.250,18.555,92.773
1620953685.743,18.066,26.855,33.203,19.043,62.500
1620953685.747,20.996,28.809,24.902,10.742,83.496
1620953685.751,18.555,27.832,19.043,13.184,125.488
1620953685.745,19.043,25.391,22.949,23.926,40.039
1620953685.749,24.414,26.367,29.297,27.832,1.953
1620953685.753,13.184,28.809,28.809,24.902,56.152
1620953685.757,8.301,26.367,29.297,21.484,59.082
1620953685.761,19.043,27.832,29.297,25.879,25.391
1620953685.765,25.391,32.227,25.879,22.949,-0.977
1620953685.769,23.438,28.809,23.926,12.207,50.293
1620953685.772,19.043,26.855,21.973,19.043,80.078
1620953685.776,19.043,28.809,28.809,28.809,55.176
1620953685.780,18.555,30.273,26.855,22.949,49.805
1620953685.784,22.949,26.367,20.508,20.020,34.668
1620953685.788,18.066,25.391,20.020,19.531,14.648
1620953685.802,12.695,27.832,20.508,21.973,27.344
1620953685.806,23.926,29.297,20.996,25.879,40.527
1620953685.810,19.531,31.250,19.043,17.578,0.000
1620953685.814,11.719,32.715,25.879,4.883,18.066
1620953685.818,12.207,35.645,27.832,11.230,34.668
1620953685.822,14.648,35.645,25.391,21.973,-1.953
1620953685.826,22.461,32.715,31.250,23.926,54.688
1620953685.829,24.414,30.762,34.180,19.043,63.477
1620953685.833,25.879,28.320,29.297,11.719,7.324
1620953685.837,32.227,26.367,26.855,15.137,2.441
1620953685.841,36.133,24.902,27.832,20.996,-5.859
1620953685.845,28.809,25.879,29.297,22.461,-49.805
1620953685.839,5.859,22.949,31.250,20.996,-66.895
1620953685.843,0.488,23.926,34.180,30.762,-47.363
1620953685.847,11.230,25.879,34.668,36.621,-33.691
1620953685.851,11.230,27.344,31.738,28.809,49.316
1620953685.855,15.137,30.273,28.809,21.484,62.988
1620953685.859,19.531,27.832,30.273,25.879,53.223
1620953685.863,21.484,27.344,33.203,29.297,15.625
1620953685.866,20.508,26.367,35.645,29.785,-3.906
1620953685.870,18.066,27.344,35.156,29.785,21.484
1620953685.874,16.602,28.320,28.809,29.297,-23.438
1620953685.878,21.484,29.297,26.367,36.133,-18.555
1620953685.882,30.762,31.738,27.832,34.180,-18.066
1620953685.899,27.344,32.715,25.879,21.484,-29.785
1620953685.903,24.902,33.203,26.367,18.066,10.254
1620953685.907,34.180,32.715,25.879,26.855,79.102
1620953685.911,24.414,31.738,28.320,25.879,81.543
1620953685.915,5.371,30.273,31.250,16.113,29.297
1620953685.919,-6.836,28.320,31.738,10.254,-2.930
1620953685.923,-4.883,31.250,31.738,14.160,33.203
1620953685.926,9.277,36.133,27.832,15.625,43.457
1620953685.930,12.207,30.273,29.785,14.648,38.086
1620953685.934,13.184,28.320,33.691,21.484,39.062
1620953685.938,18.555,27.832,36.133,23.438,75.684
1620953685.942,27.344,26.367,40.527,32.227,72.266
1620953685.933,24.414,27.832,36.621,34.180,54.199
1620953685.937,20.020,27.344,37.109,20.508,58.105
1620953685.941,27.832,27.344,40.039,17.578,68.359
1620953685.945,22.949,25.879,35.156,24.414,62.012
1620953685.949,22.949,25.879,34.668,26.855,-19.531
1620953685.953,24.902,26.367,39.062,20.508,21.484
1620953685.957,10.254,24.414,36.133,21.973,42.969
1620953685.960,3.906,21.484,33.691,30.273,20.020
1620953685.964,6.348,20.996,34.180,28.809,58.105
1620953685.968,5.859,23.926,35.156,24.902,56.152
1620953685.972,5.371,25.879,38.574,21.973,17.090
1620953685.976,13.672,21.484,39.551,27.344,9.766
1620953685.989,21.973,21.973,37.109,24.414,9.277
1620953685.993,20.996,25.879,38.574,21.484,59.082
1620953685.997,22.949,25.391,45.410,19.531,65.918
1620953686.001,22.949,27.344,43.945,19.531,26.367
1620953686.005,24.414,33.203,40.527,29.297,16.602
1620953686.009,28.320,30.273,41.504,22.461,23.438
1620953686.013,14.160,25.391,43.945,15.137,-8.789
1620953686.016,11.230,23.926,42.480,18.066,-17.578
1620953686.020,19.043,23.438,37.109,22.461,15.625
1620953686.024,17.090,25.391,35.645,28.320,22.461
1620953686.028,14.648,25.391,41.016,24.902,-5.371
1620953686.032,3.418,25.879,33.203,19.531,41.016
1620953686.026,5.371,27.344,29.297,33.203,16.602
1620953686.030,17.090,30.273,34.180,39.551,15.137
1620953686.034,15.625,33.203,34.180,35.645,8.789
1620953686.038,11.230,30.762,37.109,36.133,-31.738
1620953686.042,21.484,27.832,33.691,31.250,21.973
1620953686.046,25.391,27.344,33.203,36.621,-5.371
1620953686.050,16.602,24.902,34.668,38.574,-18.555
1620953686.053,20.996,25.879,31.250,28.320,-16.602
1620953686.057,21.973,27.344,30.762,22.949,-16.602
1620953686.061,23.926,22.949,29.297,20.508,-11.719
1620953686.065,27.344,19.043,28.320,17.578,12.695
1620953686.069,33.691,20.508,28.809,19.531,57.617
1620953686.083,36.621,23.926,32.227,22.949,30.762
1620953686.087,27.832,26.367,33.203,31.250,15.137
1620953686.091,33.203,28.320,26.855,34.180,8.789
1620953686.095,24.902,27.832,25.391,28.320,41.504
1620953686.099,20.508,28.320,27.832,27.832,45.410
1620953686.103,24.414,31.250,28.809,32.227,10.254
1620953686.107,17.090,32.227,28.320,33.203,32.715
1620953686.110,12.695,34.180,30.273,32.227,41.504
1620953686.114,9.766,35.156,32.227,35.156,72.266
1620953686.118,20.996,37.109,30.273,33.203,46.875
1620953686.122,35.156,37.109,27.832,40.039,16.113
1620953686.126,34.668,37.109,30.273,37.598,0.488
1620953686.121,20.996,35.645,33.203,22.461,17.090
1620953686.125,16.113,33.203,37.109,23.438,-1.465
1620953686.129,20.508,35.645,35.645,25.391,-62.988
1620953686.133,28.320,41.016,35.645,29.297,-60.547
1620953686.137,32.715,40.527,36.133,19.531,-29.297
1620953686.141,18.066,40.039,30.762,10.254,36.133
1620953686.145,13.184,38.086,29.297,17.578,121.582
1620953686.148,18.066,34.668,36.621,22.461,93.262
1620953686.152,16.602,35.156,42.480,21.484,18.555
1620953686.156,22.949,36.133,42.969,19.531,13.184
1620953686.160,26.855,35.645,37.598,21.484,11.230
1620953686.164,29.785,35.645,30.762,20.508,28.809
1620953686.177,32.715,35.156,33.203,16.602,61.035
1620953686.181,31.738,32.227,39.551,15.137,96.191
1620953686.185,29.785,30.273,39.551,23.926,62.988
1620953686.189,24.902,30.762,34.180,32.227,72.266
1620953686.193,27.344,33.691,35.645,39.551,49.316
1620953686.197,18.555,34.180,41.016,37.598,29.297
1620953686.201,15.137,29.785,40.527,30.273,45.898
1620953686.204,24.414,26.855,38.574,35.156,17.578
1620953686.208,26.367,26.855,39.551,35.156,39.551
1620953686.212,31.250,25.879,37.598,31.738,43.945
1620953686.216,28.809,26.367,35.156,37.598,-2.441
1620953686.220,20.508,25.879,35.645,40.039,-27.832
1620953686.214,23.438,23.438,33.691,39.062,11.230
1620953686.218,26.367,24.902,32.715,36.621,40.039
1620953686.222,24.902,24.902,36.621,25.879,34.668
1620953686.226,27.832,28.809,33.691,19.043,7.812
1620953686.230,36.133,29.297,28.320,20.020,-16.602
1620953686.234,29.297,24.414,28.320,19.531,12.207
1620953686.238,19.531,25.879,29.297,16.602,20.020
1620953686.241,18.066,29.297,29.297,26.855,26.367
1620953686.245,18.066,28.320,26.855,34.180,23.438
1620953686.249,21.484,23.926,28.809,21.484,1.953
1620953686.253,22.949,23.926,34.668,17.090,-20.508
1620953686.257,26.855,27.832,36.133,19.043,61.035
1620953686.271,24.414,23.926,30.273,9.277,65.430
1620953686.275,23.438,21.973,33.691,13.672,35.156
1620953686.279,27.832,30.273,39.551,11.719,64.941
1620953686.283,17.578,33.203,32.227,1.465,13.184
1620953686.287,6.348,27.832,26.855,11.719,-33.203
1620953686.291,9.277,29.297,26.855,24.902,-18.555
1620953686.295,13.672,32.715,26.855,18.066,40.039
1620953686.298,12.695,33.691,22.461,17.090,83.984
1620953686.302,15.137,33.691,26.855,35.156,32.715
1620953686.306,20.996,33.691,25.879,38.086,-4.883
1620953686.310,22.949,36.133,21.484,33.691,33.691
1620953686.314,19.531,36.133,27.344,28.320,22.461
1620953686.308,20.508,33.203,28.320,26.367,-48.828
1620953686.312,25.391,29.785,28.320,33.203,31.250
1620953686.316,29.785,27.344,28.809,33.203,39.062
1620953686.320,31.738,29.297,25.879,24.414,-3.418
1620953686.324,35.645,27.832,24.414,24.414,36.133
1620953686.328,29.297,28.809,25.391,36.133,36.133
1620953686.332,21.484,29.297,30.273,41.016,50.781
1620953686.335,20.020,26.855,29.785,30.762,30.273
1620953686.339,17.578,27.344,22.949,17.578,28.320
1620953686.343,29.297,31.738,23.926,21.484,40.527
1620953686.347,24.902,34.180,28.809,22.949,-2.930
1620953686.351,8.789,33.203,28.809,10.254,-77.637
1620953686.364,11.230,27.832,25.391,3.906,-25.879
1620953686.368,17.090,24.902,22.461,11.719,53.711
1620953686.372,16.113,31.250,22.461,19.531,54.688
1620953686.376,12.207,31.738,27.344,16.113,0.488
1620953686.380,15.137,31.250,26.367,6.348,-24.414
1620953686.384,15.137,35.156,28.320,10.254,-8.301
1620953686.388,21.484,36.621,32.715,15.625,38.086
1620953686.391,29.785,39.062,34.668,15.137,1.953
1620953686.395,27.344,38.574,34.180,12.695,-27.344
1620953686.399,11.230,35.645,33.691,9.766,11.230
1620953686.403,19.531,37.598,36.621,22.461,33.691
1620953686.407,34.668,34.180,43.457,39.062,65.430
1620953686.402,24.414,31.250,47.363,26.367,60.547
1620953686.406,7.812,35.645,45.410,15.625,81.055
1620953686.410,10.742,41.016,42.969,27.832,79.102
1620953686.414,20.508,40.039,40.039,35.645,37.598
1620953686.418,25.391,37.598,38.086,33.203,37.598
1620953686.422,28.809,34.180,36.621,27.832,37.598
1620953686.426,24.902,38.574,39.062,28.809,22.461
1620953686.429,24.902,40.039,42.480,35.156,66.406
1620953686.433,25.391,30.762,42.480,28.320,94.727
1620953686.437,27.344,29.297,40.527,20.996,20.020
1620953686.441,21.973,28.809,37.598,24.414,-55.176
1620953686.445,13.672,29.785,37.598,36.133,8.301
1620953686.459,15.625,32.227,37.598,38.086,62.012
1620953686.463,10.254,28.809,37.109,25.391,41.016
1620953686.467,15.625,29.785,32.715,22.949,-17.578
1620953686.471,22.949,33.203,32.227,27.344,-21.484
1620953686.475,28.809,34.180,34.180,22.949,-6.348
1620953686.479,27.344,32.715,35.156,10.742,-8.301
1620953686.483,21.484,38.086,38.086,10.254,-2.441
1620953686.486,21.484,42.480,41.992,22.461,-45.410
1620953686.490,25.391,36.133,36.621,20.020,-14.648
1620953686.494,24.902,35.156,28.809,14.160,36.621
1620953686.498,21.484,35.645,27.344,13.184,-38.574
1620953686.502,22.461,36.133,28.809,9.277,-45.898
1620953686.495,30.762,27.344,33.691,22.949,38.086
1620953686.499,50.293,23.438,29.785,48.828,17.578
1620953686.503,40.039,34.180,21.484,36.621,-29.785
1620953686.507,-2.930,37.598,17.090,0.000,31.738
1620953686.511,-14.160,33.203,13.184,-7.812,115.723
1620953686.515,5.371,34.668,11.719,2.441,74.219
1620953686.519,5.371,36.621,10.254,1.953,72.266
1620953686.522,-4.395,32.715,10.254,-3.418,47.363
1620953686.526,-9.766,33.203,11.230,0.000,34.668
1620953686.530,-8.789,34.180,19.043,8.789,71.289
1620953686.534,-0.488,40.039,25.391,16.113,41.016
1620953686.538,13.184,37.598,23.438,15.137,-12.207
1620953686.551,33.203,31.738,21.484,13.672,26.367
1620953686.555,30.273,36.621,22.949,19.531,104.492
1620953686.559,22.461,38.574,22.949,15.625,25.391
1620953686.563,22.949,38.086,25.879,11.230,11.719
1620953686.567,14.648,36.133,29.297,28.809,52.246
1620953686.571,13.672,38.574,27.344,41.992,47.363
1620953686.575,10.742,37.109,27.344,38.086,71.289
1620953686.578,3.906,38.086,27.832,24.902,79.590
1620953686.582,7.324,37.598,24.902,18.066,76.172
1620953686.586,16.113,38.086,24.902,18.066,25.879
1620953686.590,10.742,39.062,28.320,21.484,-18.555
1620953686.594,8.789,34.668,23.926,24.902,37.598
1620953686.589,8.301,36.621,20.996,20.020,26.855
1620953686.593,12.207,41.992,24.902,26.855,1.465
1620953686.597,22.461,40.039,26.855,32.227,12.695
1620953686.601,25.879,40.527,25.391,19.531,-20.508
1620953686.605,13.672,37.598,21.484,2.930,-53.711
1620953686.609,15.625,29.785,19.531,10.742,-27.832
1620953686.613,24.414,32.227,19.043,19.531,-14.160
1620953686.616,22.461,38.086,20.996,11.719,-11.719
1620953686.620,23.438,39.062,20.996,11.719,10.742
1620953686.624,25.879,35.156,20.996,20.020,21.484
1620953686.628,30.273,38.574,23.926,27.832,37.109
1620953686.632,28.320,41.992,24.902,27.344,26.855
1620953686.645,27.344,41.016,26.367,20.996,19.531
1620953686.649,22.949,41.504,25.879,18.555,34.180
1620953686.653,29.785,40.527,25.879,23.438,1.465
1620953686.657,36.621,38.574,23.926,29.297,29.297
1620953686.661,32.227,39.062,25.879,29.297,52.246
1620953686.665,30.762,41.504,30.762,28.320,25.391
1620953686.669,32.715,36.133,29.785,36.621,69.824
1620953686.672,31.738,31.738,29.785,46.387,64.941
1620953686.676,24.414,32.715,28.320,39.551,49.316
1620953686.680,15.625,33.203,26.367,19.531,72.266
1620953686.684,20.996,31.250,25.879,17.578,59.082
1620953686.688,13.672,27.344,26.855,28.809,35.645
1620953686.684,6.348,30.762,25.879,36.133,20.020
1620953686.688,6.348,33.691,23.926,35.645,-11.719
1620953686.692,1.465,32.715,26.855,36.133,16.602
1620953686.696,11.230,34.668,27.832,44.434,45.898
1620953686.700,26.367,31.250,27.344,45.898,19.043
1620953686.704,34.180,32.227,26.367,34.180,15.625
1620953686.708,36.133,34.180,24.902,29.297,-16.602
1620953686.711,41.016,31.738,26.855,34.668,19.531
1620953686.715,44.434,33.203,21.973,33.691,37.598
1620953686.719,36.133,32.715,22.461,28.320,-20.996
1620953686.723,33.203,30.273,24.414,21.973,-20.020
1620953686.727,36.133,28.320,21.484,14.648,30.762
1620953686.740,36.133,28.320,22.461,24.414,53.223
1620953686.744,22.461,27.344,23.926,24.902,57.617
1620953686.748,15.625,30.762,27.832,15.137,21.973
1620953686.752,30.273,34.180,28.320,20.020,33.203
1620953686.756,34.668,30.273,29.785,28.809,11.230
1620953686.760,32.715,27.344,28.320,23.926,-20.996
1620953686.764,28.320,24.414,21.484,10.254,3.906
1620953686.767,15.137,23.438,17.090,8.301,40.527
1620953686.771,15.137,27.344,16.113,15.137,73.730
1620953686.775,17.090,28.320,21.973,20.020,48.828
1620953686.779,18.066,29.297,26.855,18.555,75.684
1620953686.783,19.531,32.227,22.461,15.625,45.898
1620953686.776,20.508,28.320,20.508,19.531,-11.230
1620953686.780,16.113,23.926,20.996,30.273,54.688
1620953686.784,4.395,20.996,20.020,30.762,54.688
1620953686.788,2.930,20.508,22.461,29.297,28.320
1620953686.792,5.859,21.484,22.461,34.180,65.430
1620953686.796,9.277,20.996,25.391,32.715,86.426
1620953686.800,12.207,19.531,27.832,23.438,22.461
1620953686.803,12.695,17.578,23.438,13.672,-21.973
1620953686.807,12.207,18.555,17.578,11.230,-30.762
1620953686.811,20.996,19.531,15.625,17.578,-47.363
1620953686.815,25.391,23.438,17.578,24.902,-5.859
1620953686.819,26.855,27.832,23.438,18.555,-17.090
1620953686.833,30.762,28.320,22.949,23.438,1.953
1620953686.837,37.109,28.320,22.461,33.203,33.691
1620953686.841,35.156,30.762,21.484,30.273,-29.785
1620953686.845,33.203,32.715,19.531,19.043,-69.336
1620953686.849,35.645,30.273,21.973,19.043,-43.457
1620953686.853,25.879,32.227,21.973,28.809,14.160
1620953686.857,21.973,32.227,23.438,30.273,33.203
1620953686.860,18.066,29.297,26.367,28.809,54.199
1620953686.864,16.113,33.691,24.414,25.879,93.262
1620953686.868,12.695,33.203,18.066,24.902,39.062
1620953686.872,14.648,27.344,16.113,26.367,18.555
1620953686.876,15.137,28.320,16.113,26.855,90.332
1620953686.872,10.254,26.367,18.555,17.578,53.223
1620953686.876,11.719,24.414,17.090,13.672,-0.488
1620953686.880,15.625,22.461,12.207,17.090,-31.250
1620953686.884,19.531,22.949,20.020,20.508,-5.371
1620953686.888,13.184,25.391,23.926,19.043,3.906
1620953686.892,5.371,26.855,23.926,18.555,-15.625
1620953686.896,8.301,23.438,26.367,25.879,14.648
1620953686.899,8.789,18.066,22.949,20.508,29.297
1620953686.903,0.488,15.625,26.367,21.973,15.625
1620953686.907,5.371,16.602,33.203,32.227,-0.488
1620953686.911,20.508,21.973,34.180,31.738,22.461
1620953686.915,32.715,24.414,38.086,34.180,26.367
1620953686.926,26.855,26.367,37.598,30.273,41.992
1620953686.930,19.531,30.273,31.738,20.508,41.992
1620953686.934,21.973,25.391,32.715,23.438,14.648
1620953686.938,30.273,22.949,31.250,32.227,-33.203
1620953686.942,26.855,25.879,22.949,22.949,-41.504
1620953686.946,20.020,25.879,20.508,20.020,-32.227
1620953686.950,22.949,27.832,25.391,27.832,-8.789
1620953686.953,23.438,26.855,29.297,29.297,1.465
1620953686.957,32.227,27.832,33.691,27.832,3.906
1620953686.961,24.902,31.738,38.086,26.367,40.527
1620953686.965,13.672,28.809,34.180,28.809,72.754
1620953686.969,27.344,25.879,26.855,25.391,99.121
1620953686.965,27.344,27.344,25.879,24.902,55.176
1620953686.969,20.508,31.738,25.879,18.555,45.410
1620953686.973,29.297,33.691,26.367,15.625,-1.953
1620953686.977,23.438,28.320,25.879,19.531,2.441
1620953686.981,15.137,25.879,26.367,25.391,55.664
1620953686.985,12.207,26.367,29.297,25.879,-22.949
1620953686.989,3.906,25.391,26.367,15.625,1.465
1620953686.992,5.859,20.508,27.344,23.926,96.191
1620953686.996,18.066,22.461,32.715,39.062,36.133
1620953687.000,22.949,24.414,31.250,36.133,-2.441
1620953687.004,10.742,20.020,25.391,27.832,26.367
1620953687.008,10.742,23.438,24.414,33.691,63.477
1620953687.021,15.137,27.832,29.297,40.039,60.059
1620953687.025,12.695,23.438,27.832,34.180,41.016
1620953687.029,9.766,25.391,28.320,34.180,58.105
1620953687.033,10.742,32.227,28.809,24.902,60.059
1620953687.037,29.297,35.156,29.297,22.949,110.352
1620953687.041,38.574,33.203,29.297,23.438,49.316
1620953687.045,38.574,32.227,25.391,15.137,11.230
1620953687.048,37.109,36.133,23.438,16.602,59.570
1620953687.052,34.180,35.645,21.973,23.438,6.836
1620953687.056,32.227,31.250,24.414,29.297,40.527
1620953687.060,25.391,28.320,25.391,24.902,69.336
1620953687.064,28.809,29.785,29.297,22.949,27.344
1620953687.058,38.574,32.715,35.645,33.691,-24.414
1620953687.062,39.551,27.832,34.668,35.156,-23.926
1620953687.066,41.504,27.832,33.691,30.762,0.977
1620953687.070,41.016,33.203,33.203,25.391,36.133
1620953687.074,36.621,28.809,33.203,25.391,41.016
1620953687.078,39.062,24.414,34.668,32.227,15.625
1620953687.082,25.879,25.391,33.691,36.133,-10.742
1620953687.085,18.066,24.902,35.645,30.762,-20.508
1620953687.089,22.461,20.996,29.785,27.344,40.039
1620953687.093,31.738,24.902,30.273,35.645,38.574
1620953687.097,31.250,30.762,32.227,37.109,-8.789
1620953687.101,27.832,28.320,25.879,31.738,-36.133
1620953687.114,28.320,28.320,27.344,32.227,-12.695
1620953687.118,22.949,27.344,30.273,39.062,17.090
1620953687.122,34.180,26.367,35.156,41.992,17.090
1620953687.126,28.320,25.879,39.062,33.203,-36.621
1620953687.130,9.277,22.461,36.133,24.414,-22.949
1620953687.134,9.766,20.508,38.086,25.879,-10.254
1620953687.138,23.438,24.902,38.574,28.320,3.906
1620953687.141,21.484,27.344,31.738,21.973,35.645
1620953687.145,18.066,25.391,29.297,15.137,-17.578
1620953687.149,20.996,25.391,31.738,10.254,-20.020
1620953687.153,23.926,31.250,31.250,19.531,1.465
1620953687.157,29.785,28.809,32.227,35.645,14.160
1620953687.151,32.227,20.996,32.227,28.320,29.297
1620953687.155,30.762,24.902,26.855,19.531,42.969
1620953687.159,32.227,29.785,29.785,38.086,63.477
1620953687.163,30.762,26.855,35.156,43.457,52.734
1620953687.167,25.879,24.414,27.832,30.762,60.059
1620953687.171,21.484,28.809,22.949,26.855,27.832
1620953687.175,26.855,32.715,30.762,35.645,53.711
1620953687.178,38.086,29.297,30.762,39.551,60.059
1620953687.182,34.668,25.879,27.344,27.832,19.531
1620953687.186,22.461,24.414,24.902,20.020,60.547
1620953687.190,23.438,21.973,23.926,22.949,32.715
1620953687.194,32.227,21.973,23.926,36.133,-16.602
1620953687.226,32.715,21.973,24.414,33.203,39.551
1620953687.230,20.508,21.484,24.902,19.531,54.199
1620953687.234,17.090,24.902,26.855,18.066,31.738
1620953687.238,21.484,30.762,31.738,22.461,31.250
1620953687.242,24.414,22.949,31.250,16.113,15.137
1620953687.246,23.926,20.020,29.297,7.812,10.742
1620953687.250,8.301,19.531,23.926,6.348,38.574
1620953687.253,8.789,17.090,20.508,13.184,0.000
1620953687.257,8.789,20.996,27.832,20.996,38.086
1620953687.261,5.859,22.461,33.691,23.926,73.242
1620953687.265,4.883,23.926,32.227,23.926,-18.555
1620953687.269,11.719,28.809,32.227,26.855,21.973
1620953687.247,13.672,31.250,35.156,28.320,41.504
1620953687.251,18.066,31.738,33.203,25.879,-4.883
1620953687.255,20.508,30.762,34.668,20.020,0.977
1620953687.259,18.555,25.879,36.621,20.996,16.113
1620953687.263,27.344,27.832,35.156,33.691,34.180
1620953687.267,19.531,28.809,33.691,40.527,-14.160
1620953687.271,15.137,26.855,31.250,27.832,-26.855
1620953687.274,20.020,26.855,32.715,30.762,-38.574
1620953687.278,20.996,26.855,30.273,30.762,-27.344
1620953687.282,15.137,21.484,25.879,23.926,-29.785
1620953687.286,16.113,21.484,29.785,26.855,-21.973
1620953687.290,15.625,23.926,33.203,20.996,77.148
1620953687.302,18.066,23.926,27.832,18.555,129.395
1620953687.306,25.879,25.879,28.320,25.879,97.656
1620953687.310,20.020,21.973,29.297,22.461,95.215
1620953687.314,12.695,20.020,27.344,10.742,50.781
1620953687.318,23.438,22.461,27.344,20.020,-25.879
1620953687.322,28.809,19.531,27.832,32.715,-25.391
1620953687.326,15.137,20.996,30.762,25.391,30.273
1620953687.329,12.695,24.902,31.738,10.742,23.926
1620953687.333,13.184,24.414,32.227,4.883,5.859
1620953687.337,20.996,27.832,31.738,8.301,22.461
1620953687.341,25.391,28.809,31.738,11.719,-2.441
1620953687.345,22.461,25.879,32.715,7.812,-7.324
1620953687.339,19.043,20.996,37.598,8.301,62.012
1620953687.343,25.879,16.113,38.086,37.598,69.824
1620953687.347,23.926,20.508,34.668,51.270,40.527
1620953687.351,-4.883,21.973,31.250,22.461,49.805
1620953687.355,-11.230,18.066,32.715,12.207,20.996
1620953687.359,6.836,23.438,25.879,25.391,7.324
1620953687.363,13.184,22.461,24.902,35.156,32.227
1620953687.366,5.371,25.879,35.645,26.855,20.508
1620953687.370,-0.488,32.227,36.621,14.160,-8.789
1620953687.374,7.812,27.832,39.062,20.020,-14.160
1620953687.378,18.066,30.762,42.969,24.902,24.902
1620953687.382,20.996,35.156,42.969,27.832,31.250
1620953687.395,21.973,30.762,46.387,22.461,-4.883
1620953687.399,22.949,30.762,48.340,19.531,47.363
1620953687.403,27.832,34.668,44.434,22.949,27.832
1620953687.407,27.344,36.621,40.527,19.043,-38.574
1620953687.411,29.785,37.598,37.598,12.695,30.762
1620953687.415,26.855,38.086,33.203,6.836,26.367
1620953687.419,22.461,37.598,31.738,10.254,14.160
1620953687.422,25.879,38.086,30.762,12.695,19.531
1620953687.426,19.531,36.621,28.809,11.230,5.859
1620953687.430,19.531,35.645,33.203,12.695,-17.090
1620953687.434,25.879,35.156,33.203,14.160,-20.508
1620953687.438,20.508,32.715,32.715,21.484,14.160
1620953687.435,16.602,33.691,34.180,20.508,-10.742
1620953687.439,22.949,34.668,35.156,11.719,10.742
1620953687.443,38.086,33.691,35.645,10.742,16.602
1620953687.447,35.156,32.715,30.273,18.066,21.484
1620953687.451,6.836,28.809,34.180,18.066,57.129
1620953687.455,-0.977,30.273,40.039,12.695,51.758
1620953687.459,10.254,31.250,39.551,20.996,64.453
1620953687.462,14.160,31.250,39.551,38.086,43.457
1620953687.466,15.137,31.738,37.598,40.527,37.598
1620953687.470,16.113,28.809,35.645,28.809,61.035
1620953687.474,20.508,28.320,37.109,22.949,43.457
1620953687.478,29.785,26.367,37.598,24.902,35.645
1620953687.489,26.855,25.391,32.715,23.438,50.293
1620953687.493,16.113,23.926,31.738,21.484,-12.207
1620953687.497,19.043,19.531,32.715,20.020,-71.777
1620953687.501,18.066,18.066,37.109,28.320,31.250
1620953687.505,28.320,23.926,39.551,44.434,84.961
1620953687.509,41.504,28.320,38.086,50.781,18.555
1620953687.513,33.203,20.020,40.039,43.945,15.625
1620953687.516,18.555,20.020,36.621,37.598,52.246
1620953687.520,28.320,27.344,36.133,39.062,82.031
1620953687.524,38.574,26.855,37.109,35.156,76.660
1620953687.528,30.273,24.902,29.785,20.996,63.477
1620953687.532,21.973,24.902,25.879,15.625,56.152
1620953687.527,19.043,29.297,29.785,21.484,16.113
1620953687.531,23.438,33.691,34.180,24.902,0.000
1620953687.535,20.508,32.227,36.621,16.602,4.883
1620953687.539,16.113,35.645,35.156,6.348,-5.859
1620953687.543,22.461,32.715,37.109,7.324,22.461
1620953687.547,26.367,28.809,40.527,18.555,11.719
1620953687.551,25.879,30.762,39.062,22.949,-10.254
1620953687.554,22.461,27.832,39.062,22.949,1.465
1620953687.558,22.949,26.855,40.039,26.855,31.250
1620953687.562,29.785,28.809,36.621,31.738,54.199
1620953687.566,37.109,30.273,37.109,28.320,-11.230
1620953687.570,31.738,25.879,43.457,30.273,-40.527
1620953687.584,23.438,25.879,38.574,31.250,-12.695
1620953687.588,32.227,32.227,32.227,32.227,-10.742
1620953687.592,30.273,29.297,28.320,37.109,11.719
1620953687.596,21.973,25.879,24.414,30.273,9.766
1620953687.600,19.531,30.762,27.832,26.855,28.809
1620953687.604,20.508,30.762,30.273,38.086,30.762
1620953687.608,27.832,29.785,30.762,45.410,9.766
1620953687.611,19.531,28.809,28.809,34.668,1.953
1620953687.615,6.348,27.344,33.203,26.855,-31.738
1620953687.619,18.066,32.227,38.086,36.133,-20.020
1620953687.623,24.902,29.785,35.645,42.969,20.508
1620953687.627,16.602,27.832,32.227,37.109,33.691
1620953687.620,16.602,32.715,35.645,32.227,53.223
1620953687.624,20.508,34.668,39.551,28.320,30.273
1620953687.628,31.738,33.203,42.480,32.715,6.836
1620953687.632,35.645,35.645,42.480,32.227,8.301
1620953687.636,30.762,32.715,37.109,22.461,-20.508
1620953687.640,30.273,28.320,37.109,20.020,20.020
1620953687.644,28.809,29.297,36.133,22.461,43.945
1620953687.647,32.715,31.250,34.668,20.508,45.898
1620953687.651,24.414,28.809,35.156,14.648,50.293
1620953687.655,13.672,29.297,35.645,16.113,29.785
1620953687.659,27.344,30.273,36.133,27.344,6.836
1620953687.663,38.574,33.203,34.180,30.762,-1.465
1620953687.676,23.926,35.645,26.855,23.926,35.645
1620953687.680,7.812,30.273,22.949,18.066,98.633
1620953687.684,15.137,30.273,26.367,24.414,35.645
1620953687.688,27.344,37.109,25.391,32.227,-30.762
1620953687.692,34.668,35.645,24.414,24.902,-43.945
1620953687.696,24.902,31.738,24.414,17.578,-30.273
1620953687.700,9.277,30.273,18.555,17.090,31.250
1620953687.703,23.438,30.273,18.555,24.902,42.969
1620953687.707,29.297,31.250,27.832,32.227,24.902
1620953687.711,24.414,29.297,26.855,25.879,-5.859
1620953687.715,24.902,26.855,18.066,26.367,15.137
1620953687.719,24.902,29.785,23.926,31.738,-1.953
1620953687.714,15.137,30.273,29.785,23.926,6.836
1620953687.718,16.602,25.879,22.949,20.020,8.301
1620953687.722,16.113,27.832,20.996,26.367,22.461
1620953687.726,16.113,33.203,29.785,32.715,30.273
1620953687.730,25.391,32.715,41.992,41.016,-28.320
1620953687.734,24.414,30.273,37.598,38.086,6.348
1620953687.738,17.578,29.297,34.668,29.785,4.883
1620953687.741,16.602,29.785,32.227,26.855,-20.996
1620953687.745,24.902,27.344,29.785,27.344,35.156
1620953687.749,29.297,25.391,34.668,29.297,37.598
1620953687.753,23.926,26.855,31.738,22.949,-10.254
1620953687.757,22.949,26.855,24.902,22.949,20.508
1620953687.770,27.344,26.855,23.926,27.832,52.734
1620953687.774,32.227,30.762,27.832,19.531,66.406
1620953687.778,29.785,27.344,23.926,16.113,73.242
1620953687.782,23.438,23.926,27.832,23.438,15.137
1620953687.786,30.762,29.297,34.668,28.809,30.762
1620953687.790,36.133,32.715,41.504,35.156,78.125
1620953687.794,21.484,36.133,44.922,34.668,67.383
1620953687.797,9.277,32.715,41.016,26.367,60.059
1620953687.801,13.184,28.809,37.109,17.090,22.949
1620953687.805,8.789,27.344,38.574,7.324,-10.254
1620953687.809,2.930,39.062,43.457,-1.953,8.301
1620953687.813,-2.930,46.875,41.016,-13.672,51.270
1620953687.809,-6.836,48.828,44.922,-13.184,80.566
1620953687.813,-8.789,53.711,62.500,-7.324,69.336
1620953687.817,-36.621,48.340,75.195,-21.484,-2.441
1620953687.821,-66.406,51.758,77.637,-43.945,-14.160
1620953687.825,-84.961,55.176,86.426,-57.129,27.344
1620953687.829,-103.516,60.547,103.027,-78.125,19.043
1620953687.833,-127.930,57.617,120.117,-115.723,47.852
1620953687.836,-166.992,47.852,135.254,-146.484,36.621
1620953687.840,-188.965,54.199,145.508,-156.250,-3.418
1620953687.844,-193.359,56.641,163.086,-173.828,15.137
1620953687.848,-209.961,60.059,176.270,-199.707,41.992
1620953687.852,-228.027,68.359,173.340,-224.121,33.203
1620953687.865,-233.887,73.730,176.270,-237.305,-22.949
1620953687.869,-241.211,76.172,184.570,-242.676,-7.812
1620953687.873,-232.910,72.754,186.035,-237.793,27.832
1620953687.877,-222.656,76.172,177.246,-240.723,-24.414
1620953687.881,-222.168,86.914,162.598,-252.441,28.809
1620953687.885,-225.586,88.867,156.250,-240.234,67.383
1620953687.889,-228.516,83.984,155.762,-217.773,34.668
1620953687.892,-215.332,83.496,149.414,-209.961,39.062
1620953687.896,-200.684,85.449,134.766,-199.219,46.387
1620953687.900,-194.824,88.867,128.418,-188.477,20.996
1620953687.904,-174.805,91.797,125.977,-171.387,44.434
1620953687.908,-148.438,88.867,122.070,-150.391,66.406
1620953687.901,-139.160,79.590,111.816,-147.461,25.879
1620953687.905,-125.977,67.871,97.656,-132.324,37.109
1620953687.909,-113.770,62.988,90.820,-99.609,21.973
1620953687.913,-90.332,65.430,78.125,-72.754,32.715
1620953687.917,-73.242,58.105,69.824,-62.500,69.824
1620953687.921,-66.406,44.922,56.641,-56.152,-6.348
1620953687.925,-42.480,40.039,43.945,-31.738,-15.625
1620953687.928,-11.230,33.203,47.363,5.859,-1.465
1620953687.932,10.254,33.203,46.387,23.926,21.973
1620953687.936,24.902,35.156,29.785,27.344,2.441
1620953687.940,40.039,28.320,13.184,36.133,-8.301
1620953687.944,61.035,25.391,13.184,67.871,21.973
1620953687.958,82.031,20.996,15.137,91.309,20.020
1620953687.962,86.914,10.254,16.113,87.891,76.660
1620953687.966,94.238,1.953,7.324,93.262,67.871
1620953687.970,114.746,7.324,2.441,110.352,19.531
1620953687.974,123.535,8.301,3.906,113.770,-12.207
1620953687.978,124.023,-1.953,-8.789,104.004,22.949
1620953687.982,129.883,-1.953,-17.578,109.863,56.152
1620953687.985,140.137,1.465,-13.672,129.395,6.348
1620953687.989,153.809,-6.348,-20.996,141.602,-41.992
1620953687.993,150.879,-13.184,-22.949,140.137,-25.879
1620953687.997,136.230,-13.672,-11.719,143.066,14.648
1620953688.001,146.484,-13.184,-9.766,152.344,48.340
1620953687.995,152.344,-13.672,-11.719,159.180,27.344
1620953687.999,141.602,-14.648,-14.160,151.855,14.160
1620953688.003,137.207,-12.695,-11.230,145.996,21.973
1620953688.007,144.531,-13.672,-12.207,140.625,43.945
1620953688.011,145.508,-19.531,-19.531,141.602,7.812
1620953688.015,131.836,-17.578,-21.973,144.043,4.883
1620953688.019,119.141,-17.090,-19.531,134.766,31.250
1620953688.022,115.234,-21.973,-15.137,136.230,-3.906
1620953688.026,118.652,-24.902,-18.066,144.043,51.270
1620953688.030,130.371,-22.461,-15.137,145.020,30.273
1620953688.034,128.418,-13.184,-7.324,138.672,51.270
1620953688.038,118.652,-13.672,-17.090,127.441,103.027
1620953688.051,118.652,-18.066,-25.391,127.441,68.359
1620953688.055,115.234,-14.648,-29.297,124.023,80.566
1620953688.059,110.352,-7.812,-29.785,111.816,82.031
1620953688.063,112.793,-7.324,-27.344,101.074,-6.836
1620953688.067,114.746,-5.371,-33.691,101.562,-8.301
1620953688.071,116.699,0.000,-29.785,111.328,24.414
1620953688.075,122.559,0.977,-25.391,110.352,3.418
1620953688.078,114.258,1.953,-28.809,106.445,24.902
1620953688.082,98.633,0.977,-30.273,109.375,44.922
1620953688.086,102.539,3.418,-32.227,108.887,8.301
1620953688.090,112.793,8.301,-31.738,112.305,6.348
1620953688.094,108.398,8.789,-26.367,109.375,51.758
1620953688.090,94.727,8.789,-21.484,99.121,13.672
1620953688.094,101.074,13.672,-22.949,105.469,22.949
1620953688.098,103.516,15.625,-18.555,111.328,64.453
1620953688.102,89.844,19.043,-12.695,97.168,62.988
1620953688.106,92.773,23.926,-11.719,84.961,64.453
1620953688.110,100.586,19.043,-6.836,92.285,15.137
1620953688.114,91.309,16.602,-5.859,88.867,7.324
1620953688.117,84.473,18.555,-9.766,67.871,11.719
1620953688.121,89.355,17.090,-12.207,66.895,1.465
1620953688.125,72.266,18.555,-12.695,70.312,-21.484
1620953688.129,71.289,24.414,-11.230,77.148,0.977
1620953688.133,74.219,23.926,-6.836,77.148,10.742
1620953688.146,65.430,21.973,-2.930,69.824,-19.531
1620953688.150,61.035,22.461,0.977,71.289,-2.930
1620953688.154,59.570,19.043,4.883,76.172,27.344
1620953688.158,63.477,18.555,4.883,85.449,47.363
1620953688.162,62.012,24.414,7.812,80.078,20.020
1620953688.166,65.918,23.438,11.230,71.777,-1.465
1620953688.170,68.359,23.926,11.719,74.707,-13.184
1620953688.173,68.359,29.785,12.695,73.730,4.395
1620953688.177,65.918,34.668,11.719,66.895,34.180
1620953688.181,59.570,29.785,10.742,57.129,74.219
1620953688.185,51.758,28.809,14.160,53.711,15.625
1620953688.189,53.223,35.156,21.484,57.617,12.207
1620953688.183,55.664,34.668,28.320,53.223,52.734
1620953688.187,57.129,33.691,30.273,47.852,-0.977
1620953688.191,46.875,33.203,31.738,53.223,10.254
1620953688.195,38.086,34.668,32.227,54.199,41.992
1620953688.199,47.852,38.086,32.227,47.852,17.578
1620953688.203,41.504,38.086,32.715,42.480,-7.812
1620953688.207,35.156,34.180,30.273,39.551,44.922
1620953688.210,44.922,34.180,26.367,45.898,19.043
1620953688.214,49.316,32.715,25.391,52.734,24.902
1620953688.218,41.992,29.785,24.414,51.758,83.984
1620953688.222,36.621,36.133,26.367,46.387,27.344
1620953688.226,38.574,32.715,27.344,44.434,24.414
1620953688.239,47.852,32.715,25.879,52.246,20.020
1620953688.243,45.410,41.504,26.855,46.875,32.715
1620953688.247,34.668,39.062,30.762,38.086,69.336
1620953688.251,29.297,32.715,31.738,43.945,64.941
1620953688.255,32.715,32.715,29.297,50.293,70.312
1620953688.259,40.527,32.715,27.344,42.969,54.199
1620953688.263,43.457,31.250,27.832,28.320,13.184
1620953688.266,31.738,33.203,31.738,32.715,26.367
1620953688.270,20.996,33.691,31.738,37.598,52.246
1620953688.274,27.832,31.738,29.297,35.156,33.203
1620953688.278,30.273,34.180,36.621,28.809,30.762
1620953688.282,24.902,39.551,40.039,25.879,48.340
1620953688.276,31.250,41.504,35.156,27.344,17.578
1620953688.280,41.504,38.574,32.227,24.414,14.160
1620953688.284,43.945,38.086,29.297,23.926,20.508
1620953688.288,40.527,41.016,24.414,28.809,-19.531
1620953688.292,42.480,40.039,24.414,34.668,15.137
1620953688.296,45.410,40.039,27.832,37.598,61.035
1620953688.300,43.457,43.457,24.902,34.668,-12.695
1620953688.303,35.645,44.434,20.508,24.902,-38.086
1620953688.307,26.855,41.016,20.020,25.879,-24.414
1620953688.311,18.066,37.109,22.461,39.551,-8.789
1620953688.315,12.695,34.668,23.438,31.250,12.207
1620953688.319,13.672,30.762,20.996,21.973,24.414
1620953688.351,16.113,30.762,22.949,24.414,21.973
1620953688.355,28.809,27.344,29.297,26.367,46.387
1620953688.359,37.109,30.762,33.691,27.344,44.922
1620953688.363,28.320,36.621,35.156,20.996,-12.695
1620953688.367,19.043,35.645,30.762,12.207,43.945
1620953688.371,13.672,30.273,30.273,12.695,55.176
1620953688.375,14.160,28.809,33.691,18.066,45.898
1620953688.378,11.230,30.273,33.691,10.742,53.711
1620953688.382,17.090,28.320,33.691,13.672,40.039
1620953688.386,35.645,32.715,35.156,48.828,30.273
1620953688.390,24.414,36.133,32.715,36.621,31.250
1620953688.394,9.766,34.180,26.855,-1.465,9.766
1620953688.372,25.879,37.598,21.973,10.254,-41.992
1620953688.376,41.504,41.016,27.344,24.902,-35.156
1620953688.380,35.645,40.039,27.344,27.344,13.672
1620953688.384,33.203,42.969,23.926,26.855,-1.465
1620953688.388,35.156,42.480,26.855,23.926,30.273
1620953688.392,35.156,39.062,29.297,25.879,6.836
1620953688.396,35.156,38.086,30.762,32.715,-17.090
1620953688.399,42.969,37.109,32.227,45.410,42.969
1620953688.403,42.480,36.621,34.180,47.363,20.996
1620953688.407,38.086,40.039,29.785,40.039,33.691
1620953688.411,40.527,38.574,21.973,42.969,5.371
1620953688.415,49.805,31.250,24.414,52.734,12.207
1620953688.427,41.992,25.879,31.738,49.805,13.672
1620953688.431,21.484,26.367,34.180,41.504,24.902
1620953688.435,16.113,29.785,36.133,44.434,32.715
1620953688.439,14.648,27.832,35.156,48.828,12.207
1620953688.443,18.555,27.832,35.645,49.316,41.992
1620953688.447,16.602,26.367,33.691,39.062,-2.441
1620953688.451,20.996,27.344,26.367,33.691,-44.434
1620953688.454,30.273,28.809,27.344,44.922,24.414
1620953688.458,17.090,27.344,29.297,33.203,24.414
1620953688.462,6.348,21.484,24.902,18.555,-22.461
1620953688.466,11.230,21.484,24.902,29.785,-24.414
1620953688.470,19.531,29.785,28.809,44.922,-1.465
1620953688.464,30.273,31.250,28.809,41.992,-8.301
1620953688.468,31.250,25.391,32.227,24.902,30.273
1620953688.472,29.785,27.344,35.645,26.367,34.668
1620953688.476,41.016,31.738,31.738,34.180,36.133
1620953688.480,49.805,29.297,30.762,32.715,88.867
1620953688.484,47.852,30.273,31.738,21.973,25.391
1620953688.488,48.828,29.297,27.832,14.160,-16.602
1620953688.491,50.293,27.832,29.297,15.625,53.223
1620953688.495,50.781,31.250,31.738,19.043,58.105
1620953688.499,48.340,34.180,33.691,20.020,23.438
1620953688.503,32.227,31.738,34.180,15.625,35.645
1620953688.507,23.438,29.297,34.668,24.902,27.344
1620953688.520,34.180,26.367,38.086,34.180,56.152
1620953688.524,36.621,30.273,34.668,28.809,55.176
1620953688.528,24.902,31.250,27.832,21.973,48.828
1620953688.532,26.855,29.785,30.273,18.066,18.555
1620953688.536,34.180,29.297,31.250,20.508,5.371
1620953688.540,20.996,27.344,29.785,21.973,12.207
1620953688.544,17.090,29.297,28.809,13.184,36.133
1620953688.547,21.973,27.832,28.809,17.090,37.598
1620953688.551,15.625,30.273,30.273,20.020,-30.273
1620953688.555,7.324,32.715,26.855,25.391,0.977
1620953688.559,4.395,34.668,25.391,28.809,44.922
1620953688.563,0.977,33.203,28.320,25.879,2.930
1620953688.558,-7.812,31.738,29.785,25.879,9.277
1620953688.562,-0.488,29.785,32.227,32.227,4.883
1620953688.566,5.371,30.273,31.250,29.297,-13.184
1620953688.570,2.930,30.762,26.855,20.020,45.410
1620953688.574,16.602,36.133,29.785,24.414,100.098
1620953688.578,28.809,44.434,33.691,27.344,36.133
1620953688.582,20.508,35.645,29.785,19.531,12.695
1620953688.585,14.160,28.320,26.855,18.066,57.617
1620953688.589,17.578,28.809,24.414,15.137,72.754
1620953688.593,23.438,31.250,28.809,12.695,79.102
1620953688.597,30.273,33.691,35.645,14.648,75.684
1620953688.601,35.645,30.762,37.109,5.859,-11.230
1620953688.614,40.039,32.715,41.992,6.348,-12.695
1620953688.618,36.621,35.156,43.945,14.160,26.855
1620953688.622,30.273,28.320,35.645,13.672,47.363
1620953688.626,31.738,28.320,32.227,13.672,54.688
1620953688.630,29.297,29.785,39.062,16.602,-20.996
1620953688.634,22.949,29.785,40.527,21.973,-61.523
1620953688.638,30.762,30.762,40.527,26.367,-5.859
1620953688.641,37.109,29.785,41.504,33.691,27.832
1620953688.645,33.203,30.273,44.434,36.133,5.371
1620953688.649,33.691,26.855,46.875,39.062,24.902
1620953688.653,35.156,25.879,43.945,44.434,11.230
1620953688.657,32.227,27.832,43.457,44.434,-27.344
1620953688.652,7.324,27.344,44.922,35.645,-24.414
1620953688.656,-1.953,25.879,43.457,32.227,-11.230
1620953688.660,8.789,26.367,43.945,33.203,-25.391
1620953688.664,10.254,28.320,40.039,30.273,-20.508
1620953688.668,8.301,27.344,40.039,28.809,17.090
1620953688.672,1.465,25.879,42.480,24.414,-11.230
1620953688.676,0.977,27.344,37.109,25.879,-48.340
1620953688.679,12.207,30.762,35.156,31.250,26.367
1620953688.683,18.066,35.156,36.621,22.461,78.613
1620953688.687,17.578,38.574,37.109,17.090,52.734
1620953688.691,21.973,33.691,35.645,17.090,-0.488
1620953688.695,20.020,29.785,33.203,16.113,49.316
1620953688.709,16.113,32.715,33.203,19.531,38.086
1620953688.713,15.625,33.691,35.156,17.090,35.156
1620953688.717,17.578,32.227,36.133,21.973,77.148
1620953688.721,25.391,31.738,35.156,30.273,19.531
1620953688.725,31.250,33.203,34.180,33.203,2.930
1620953688.729,27.344,34.668,35.645,28.809,3.418
1620953688.733,20.508,30.273,35.645,25.879,-19.531
1620953688.736,20.996,31.250,35.645,34.180,-41.016
1620953688.740,22.949,33.203,41.992,41.016,-20.020
1620953688.744,19.043,35.156,41.016,38.086,41.504
1620953688.748,18.066,39.062,37.109,26.367,85.449
1620953688.752,20.020,41.992,43.457,29.785,32.715
1620953688.764,22.949,34.668,47.363,39.551,-20.020
1620953688.768,15.137,28.320,40.039,25.879,28.320
1620953688.772,10.742,29.297,36.621,17.578,91.309
1620953688.776,17.578,25.879,37.598,21.973,89.355
1620953688.780,20.996,25.391,38.086,27.832,39.551
1620953688.784,28.809,27.832,40.527,34.180,-2.930
1620953688.788,31.250,30.273,41.016,27.832,-31.250
1620953688.791,25.879,30.762,36.621,18.555,-0.977
1620953688.795,17.578,31.738,34.180,19.043,30.273
1620953688.799,21.973,32.715,30.273,21.484,18.555
1620953688.803,37.109,31.250,32.227,20.996,3.906
1620953688.807,37.109,34.668,35.645,16.113,-37.598
1620953688.801,21.484,41.016,32.227,20.996,-22.949
1620953688.805,21.484,45.410,31.738,34.668,74.707
1620953688.809,24.414,40.039,30.762,29.785,25.391
1620953688.813,11.230,41.016,34.668,25.391,-40.039
1620953688.817,6.348,42.480,36.621,36.621,28.320
1620953688.821,13.672,38.574,34.668,43.457,25.391
1620953688.825,18.066,35.645,36.621,32.715,55.664
1620953688.828,20.508,36.621,39.062,23.438,59.570
1620953688.832,24.414,40.039,41.992,22.949,-15.137
1620953688.836,29.785,38.086,40.527,19.531,11.230
1620953688.840,38.574,37.109,37.598,19.531,39.551
1620953688.844,34.180,38.086,35.156,11.719,76.660
1620953688.840,21.484,37.109,29.785,5.371,65.430
1620953688.844,27.832,36.621,23.926,9.766,-31.738
1620953688.848,34.180,35.645,19.043,9.277,2.441
1620953688.852,35.156,37.109,20.508,5.371,77.637
1620953688.856,34.668,39.551,29.297,9.766,41.504
1620953688.860,27.344,36.621,33.203,17.578,1.953
1620953688.864,26.367,35.156,28.809,24.414,8.789
1620953688.867,24.902,31.738,26.855,27.344,46.875
1620953688.871,10.742,29.785,26.855,23.926,27.344
1620953688.875,-1.465,36.133,26.855,33.691,-7.812
1620953688.879,0.488,40.039,24.902,40.039,28.320
1620953688.883,14.160,39.551,23.926,39.062,20.996
1620953688.895,23.926,41.992,30.762,38.574,12.695
1620953688.899,20.020,43.457,35.645,36.133,74.219
1620953688.903,17.578,44.922,32.227,48.828,102.051
1620953688.907,28.809,45.410,31.738,47.852,27.832
1620953688.911,30.273,46.387,31.250,34.180,1.465
1620953688.915,21.973,48.340,27.832,32.227,-6.836
1620953688.919,28.320,44.922,28.320,40.527,-46.875
1620953688.922,40.039,40.527,29.785,41.992,-42.480
1620953688.926,43.457,40.039,27.832,34.180,-36.133
1620953688.930,37.598,41.504,22.949,27.832,4.395
1620953688.934,32.715,40.039,22.949,23.438,16.602
1620953688.938,24.414,39.551,24.902,27.344,4.395
1620953688.934,18.066,38.574,30.762,27.832,40.527
1620953688.938,21.484,38.574,35.645,20.020,64.453
1620953688.942,29.785,35.156,36.621,18.555,14.160
1620953688.946,31.250,36.133,39.062,30.762,-14.160
1620953688.950,32.715,35.156,38.086,30.762,25.879
1620953688.954,34.180,33.203,38.086,24.414,73.730
1620953688.958,20.508,30.762,36.621,24.414,54.688
1620953688.961,13.672,31.250,39.062,36.133,8.789
1620953688.965,15.625,35.645,42.480,41.992,6.836
1620953688.969,15.137,28.320,34.668,31.738,35.156
1620953688.973,17.578,26.855,32.715,28.320,45.410
1620953688.977,22.461,30.762,38.086,38.086,35.645
1620953688.990,30.273,33.691,38.574,46.875,20.508
1620953688.994,34.180,34.668,36.621,45.898,36.133
1620953688.998,29.297,32.227,35.645,40.527,24.414
1620953689.002,32.715,36.621,35.645,44.434,-32.715
1620953689.006,38.086,37.598,37.109,48.828,11.230
1620953689.010,39.062,33.203,41.016,40.039,66.895
1620953689.014,39.551,34.180,41.992,35.156,52.734
1620953689.017,30.273,35.645,40.039,34.180,30.762
1620953689.021,25.879,34.668,39.551,33.691,-0.488
1620953689.025,32.227,34.180,40.527,31.738,-10.254
1620953689.029,37.598,34.668,41.504,27.832,18.066
1620953689.033,38.086,36.133,39.551,32.715,91.797
1620953689.026,43.457,36.133,34.180,43.457,57.617
1620953689.030,50.781,39.551,31.738,41.504,1.953
1620953689.034,43.457,41.504,31.250,28.809,14.160
1620953689.038,32.227,36.133,32.227,25.391,19.043
1620953689.042,32.227,32.715,36.621,24.414,52.246
1620953689.046,44.922,32.227,40.527,26.367,41.016
1620953689.050,37.598,31.738,41.504,26.855,30.762
1620953689.053,23.926,32.715,40.527,22.461,27.344
1620953689.057,13.184,32.715,34.668,31.738,7.324
1620953689.061,19.531,34.668,30.762,33.691,11.230
1620953689.065,24.414,37.598,32.227,23.438,-34.180
1620953689.069,17.578,33.691,34.180,16.113,-32.715
1620953689.083,24.902,28.809,30.762,21.973,-16.602
1620953689.087,32.715,26.855,26.855,31.738,29.785
1620953689.091,22.461,29.297,24.902,31.250,106.445
1620953689.095,7.324,31.738,25.879,30.273,70.801
1620953689.099,12.695,28.320,32.227,35.156,2.441
1620953689.103,29.785,31.738,25.879,43.457,-4.395
1620953689.107,70.312,38.086,16.602,64.941,54.688
1620953689.110,69.336,33.691,29.297,61.035,14.160
1620953689.114,23.438,31.738,37.598,24.414,28.809
1620953689.118,22.949,32.715,36.133,22.949,38.574
1620953689.122,30.762,27.832,39.551,32.227,-16.602
1620953689.126,19.043,22.949,40.039,23.438,46.387
1620953689.120,8.789,18.555,43.457,9.277,59.082
1620953689.124,5.859,19.531,42.480,4.395,15.625
1620953689.128,12.695,20.996,45.410,11.230,49.805
1620953689.132,10.254,12.695,47.852,0.488,25.879
1620953689.136,6.348,11.719,44.922,-7.324,-7.324
1620953689.140,6.348,15.137,46.387,-0.488,16.602
1620953689.144,9.766,14.648,43.945,3.418,30.273
1620953689.147,10.742,16.602,41.992,12.695,39.551
1620953689.151,3.418,19.531,41.504,13.184,63.477
1620953689.155,5.859,19.531,42.969,6.348,62.012
1620953689.159,5.371,17.090,42.969,14.648,53.711
1620953689.163,4.883,17.090,39.062,26.367,6.348
1620953689.176,0.488,20.996,31.250,20.996,-80.566
1620953689.180,-0.488,21.973,27.832,19.531,2.930
1620953689.184,15.625,19.531,24.902,24.414,51.270
1620953689.188,17.090,21.973,22.949,31.738,-34.668
1620953689.192,10.254,24.902,23.926,33.691,-1.465
1620953689.196,1.953,22.461,21.484,23.438,19.043
1620953689.200,3.906,22.949,19.531,24.902,-5.859
1620953689.203,12.207,20.508,22.949,32.227,15.137
1620953689.207,17.578,22.949,26.855,29.785,27.832
1620953689.211,13.672,28.809,25.879,23.438,20.996
1620953689.215,1.953,21.484,26.367,26.855,3.906
1620953689.219,17.090,20.020,28.320,31.250,8.301
1620953689.215,26.367,23.926,33.203,32.715,-25.879
1620953689.219,23.438,24.414,36.133,34.180,-1.953
1620953689.223,23.438,23.926,34.180,29.785,25.391
1620953689.227,31.250,20.020,34.668,33.691,13.184
1620953689.231,37.598,20.508,36.621,36.133,47.852
1620953689.235,31.250,20.996,39.551,28.809,11.230
1620953689.239,27.832,17.578,35.156,19.043,28.809
1620953689.242,26.855,19.043,27.344,17.090,67.871
1620953689.246,29.297,21.973,25.879,20.020,45.410
1620953689.250,36.133,24.902,30.273,14.648,65.430
1620953689.254,34.180,26.367,32.715,9.277,35.156
1620953689.258,30.273,26.367,30.762,19.043,3.906
1620953689.272,35.156,29.297,36.621,27.832,24.902
1620953689.276,36.133,29.785,38.086,30.273,80.078
1620953689.280,31.250,28.320,36.621,32.227,107.422
1620953689.284,40.039,31.250,38.574,29.785,24.414
1620953689.288,50.781,28.809,34.668,25.879,-36.133
1620953689.292,51.758,25.391,33.691,31.250,-2.930
1620953689.296,26.367,24.414,36.133,33.203,55.664
1620953689.299,-18.066,21.484,38.574,34.180,86.914
1620953689.303,-16.113,27.832,45.410,41.992,56.152
1620953689.307,7.324,26.855,47.363,43.945,8.301
1620953689.311,7.324,25.879,41.504,34.180,0.977
1620953689.315,9.766,30.762,35.645,24.902,36.133
1620953689.308,20.020,28.320,36.133,30.273,-14.160
1620953689.312,22.949,24.902,35.156,34.180,-26.855
1620953689.316,25.391,24.902,29.785,27.832,-7.324
1620953689.320,20.508,24.414,26.367,23.438,-21.973
1620953689.324,20.996,26.367,29.785,26.367,59.082
1620953689.328,27.344,28.809,30.762,29.297,48.828
1620953689.332,29.297,27.832,28.809,23.438,-29.297
1620953689.335,30.273,28.809,33.203,16.602,17.090
1620953689.339,31.250,33.691,32.227,20.508,0.977
1620953689.343,35.645,32.715,27.344,24.902,50.293
1620953689.347,34.668,27.344,28.320,28.320,66.895
1620953689.351,29.785,27.832,29.785,30.762,47.852
1620953689.364,28.809,30.273,34.180,35.156,56.152
1620953689.368,34.668,24.902,34.668,48.340,20.020
1620953689.372,40.039,24.902,33.691,52.246,50.293
1620953689.376,43.457,25.879,35.156,47.363,4.395
1620953689.380,40.527,24.902,35.645,44.922,-1.953
1620953689.384,32.715,32.227,33.691,40.527,79.590
1620953689.388,33.691,32.715,31.738,41.016,89.355
1620953689.391,33.691,26.855,33.691,43.457,90.820
1620953689.395,16.113,27.832,32.227,39.062,37.109
1620953689.399,2.441,29.785,32.227,34.180,-38.574
1620953689.403,11.719,32.715,28.809,25.879,-16.602
1620953689.407,17.578,32.227,25.879,15.137,51.270
1620953689.401,20.508,32.227,30.273,12.695,5.859
1620953689.405,22.461,37.109,25.879,4.883,-46.875
1620953689.409,18.066,34.180,22.949,14.160,-70.801
1620953689.413,19.531,31.738,26.367,30.273,-65.918
1620953689.417,22.461,33.691,25.879,30.273,-9.766
1620953689.421,34.668,27.832,30.273,39.062,14.160
1620953689.425,57.617,26.855,30.762,60.059,30.762
1620953689.428,56.152,35.645,25.391,41.992,-0.488
1620953689.432,34.668,43.945,27.344,6.836,8.301
1620953689.436,16.602,42.480,26.855,-3.906,16.113
1620953689.440,14.648,38.086,21.484,6.836,33.691
1620953689.444,25.391,42.969,14.160,16.602,58.105
1620953689.458,15.625,46.875,13.184,-4.883,43.945
1620953689.462,-7.324,42.969,13.184,-19.043,52.246
1620953689.466,-12.207,47.363,17.090,-4.395,71.289
1620953689.470,-12.207,51.270,23.926,-0.977,29.785
1620953689.474,-5.371,38.574,20.020,0.977,22.461
1620953689.478,-0.488,31.738,21.484,2.441,20.508
1620953689.482,-7.324,29.785,26.855,-1.465,26.855
1620953689.485,0.000,29.297,22.949,1.953,48.828
1620953689.489,5.371,27.344,20.020,4.883,47.363
1620953689.493,7.812,25.391,25.879,5.859,41.016
1620953689.497,13.672,27.832,27.832,2.441,39.062
1620953689.501,20.996,29.785,28.320,5.859,29.297
1620953689.496,31.738,33.203,33.691,17.090,-15.137
1620953689.500,36.133,34.180,31.738,9.277,11.230
1620953689.504,36.133,31.250,32.227,5.371,52.246
1620953689.508,23.926,31.738,31.250,9.277,16.602
1620953689.512,19.043,32.227,25.879,12.207,31.250
1620953689.516,27.344,26.367,25.391,15.137,17.090
1620953689.520,25.391,22.461,23.438,9.766,-12.207
1620953689.523,20.996,22.949,24.902,13.672,15.625
1620953689.527,26.367,26.855,24.902,23.926,10.742
1620953689.531,25.879,25.879,20.996,28.809,1.465
1620953689.535,18.555,21.484,24.902,22.949,9.766
1620953689.539,16.113,26.855,29.297,20.508,-38.574
1620953689.553,16.113,30.762,28.320,29.785,-27.344
1620953689.557,15.137,31.738,31.250,36.621,55.176
1620953689.561,14.160,31.250,30.273,30.273,87.891
1620953689.565,7.812,28.809,28.809,23.438,42.969
1620953689.569,15.137,30.273,32.715,30.762,48.828
1620953689.573,37.598,29.785,33.203,38.574,15.137
1620953689.577,32.227,28.320,28.320,34.668,35.156
1620953689.580,13.672,25.879,35.645,38.086,41.504
1620953689.584,22.461,30.273,42.480,37.598,-20.508
1620953689.588,34.180,32.715,33.691,32.715,-3.418
1620953689.592,26.367,30.762,25.391,35.645,-18.555
1620953689.596,24.414,29.785,24.902,27.344,-13.672
1620953689.589,22.949,29.297,29.785,16.113,5.859
1620953689.593,24.902,27.344,33.203,26.855,-11.230
1620953689.597,37.598,30.273,38.574,35.156,-8.301
1620953689.601,41.992,34.668,41.504,21.973,14.160
1620953689.605,43.457,32.227,41.504,18.555,-1.465
1620953689.609,36.621,30.762,40.527,20.508,19.531
1620953689.613,37.109,31.250,43.457,25.391,36.133
1620953689.616,32.227,29.297,42.969,32.227,18.555
1620953689.620,24.414,29.297,39.062,25.391,26.367
1620953689.624,29.297,25.391,41.504,23.926,40.039
1620953689.628,26.367,20.996,40.527,35.645,5.859
1620953689.632,21.973,22.949,35.156,39.551,0.488
1620953689.645,22.461,20.020,33.203,33.203,67.383
1620953689.649,25.391,19.531,36.133,34.180,16.602
1620953689.653,33.691,26.855,38.574,42.480,5.371
1620953689.657,33.203,24.414,34.668,40.527,5.859
1620953689.661,24.414,20.996,34.668,29.297,-32.715
1620953689.665,18.066,24.902,38.086,23.438,6.836
1620953689.669,21.973,25.879,38.086,35.156,37.109
1620953689.672,27.832,30.762,39.062,40.039,40.039
1620953689.676,25.879,32.227,40.039,28.809,1.953
1620953689.680,23.438,30.762,40.527,26.367,-40.527
1620953689.684,15.625,31.738,40.039,33.691,-29.785
1620953689.688,12.695,31.250,38.086,40.527,-26.855
1620953689.685,15.625,26.855,31.250,33.691,0.000
1620953689.689,14.160,28.809,29.785,17.578,-22.461
1620953689.693,25.391,30.762,34.180,19.531,-26.367
1620953689.697,29.785,29.297,35.645,32.715,55.176
1620953689.701,26.855,29.785,38.086,38.086,81.055
1620953689.705,36.133,30.762,39.062,35.645,36.133
1620953689.709,37.109,33.203,31.738,32.227,54.199
1620953689.712,39.551,29.785,29.785,31.738,101.562
1620953689.716,59.570,26.367,33.203,52.734,45.898
1620953689.720,59.082,29.785,30.273,55.664,0.000
1620953689.724,25.879,32.227,26.367,18.066,22.461
1620953689.728,19.531,34.180,25.391,7.812,-10.254
1620953689.739,41.504,42.969,22.949,25.391,36.133
1620953689.743,43.945,43.457,26.367,34.668,88.867
1620953689.747,30.762,38.086,31.250,31.738,13.184
1620953689.751,28.320,38.574,27.832,33.203,-36.133
1620953689.755,37.598,35.645,26.367,50.293,5.371
1620953689.759,40.527,33.691,27.832,45.898,2.441
1620953689.763,36.133,34.668,29.297,37.109,9.277
1620953689.766,38.574,41.504,31.738,46.875,20.508
1620953689.770,41.504,41.016,25.879,50.293,1.953
1620953689.774,40.039,30.762,24.902,46.387,41.992
1620953689.778,46.387,34.668,32.227,41.504,44.434
1620953689.782,49.316,36.133,30.762,36.621,44.922
1620953689.778,42.969,38.574,33.203,34.668,49.805
1620953689.782,47.852,43.457,37.598,41.992,22.949
1620953689.786,41.016,39.551,38.086,41.016,68.359
1620953689.790,24.414,42.969,33.203,39.551,60.059
1620953689.794,35.156,48.340,31.738,50.781,12.695
1620953689.798,45.410,43.457,37.109,55.664,2.441
1620953689.802,40.039,44.434,37.598,48.828,-20.020
1620953689.805,27.832,45.898,31.250,40.527,14.160
1620953689.809,27.344,40.039,27.344,36.621,-1.465
1620953689.813,36.133,37.598,25.879,37.598,6.836
1620953689.817,36.621,39.551,24.902,32.227,14.648
1620953689.821,38.574,40.527,22.461,24.414,-26.855
1620953689.834,39.551,38.086,19.531,27.344,11.719
1620953689.838,36.133,36.133,21.484,32.715,42.480
1620953689.842,22.461,34.668,26.367,27.344,18.066
1620953689.846,14.160,34.180,29.297,16.113,4.395
1620953689.850,25.879,37.109,27.344,22.949,7.812
1620953689.854,28.809,34.668,23.438,37.598,-22.949
1620953689.858,28.320,32.715,22.461,35.645,20.996
1620953689.861,29.297,33.203,22.461,27.344,82.520
1620953689.865,26.367,31.738,25.879,31.250,59.082
1620953689.869,28.320,34.180,27.344,36.621,58.594
1620953689.873,35.156,33.691,25.391,42.969,19.043
1620953689.877,41.016,34.180,27.344,44.434,51.758
1620953689.870,44.922,39.062,28.809,35.645,90.332
1620953689.874,43.457,40.039,28.809,36.133,65.918
1620953689.878,44.922,44.922,21.973,43.945,79.102
1620953689.882,48.340,47.852,21.973,42.480,86.426
1620953689.886,35.645,45.898,26.367,35.156,49.316
1620953689.890,17.090,43.457,24.902,30.762,17.090
1620953689.894,21.484,36.621,28.809,32.227,10.254
1620953689.897,31.250,38.574,34.668,36.621,-17.090
1620953689.901,19.043,45.898,36.621,33.203,-47.363
1620953689.905,9.277,44.922,38.574,23.438,-41.016
1620953689.909,23.926,40.527,39.062,34.180,-0.488
1620953689.913,21.973,41.992,37.598,42.480,25.391
1620953689.926,15.625,39.551,41.992,28.809,15.137
1620953689.930,10.254,39.062,39.062,25.391,56.152
1620953689.934,7.812,40.039,34.180,32.715,70.312
1620953689.938,20.020,40.039,38.086,34.668,3.906
1620953689.942,17.578,42.969,37.598,28.809,6.836
1620953689.946,13.184,36.133,29.785,12.695,17.090
1620953689.950,16.113,30.273,30.273,9.277,18.066
1620953689.953,15.625,35.156,29.785,16.113,73.730
1620953689.957,22.461,34.180,27.344,23.926,63.477
1620953689.961,25.879,32.227,35.156,24.414,35.156
1620953689.965,22.461,30.273,39.062,20.996,3.418
1620953689.969,32.227,31.738,38.574,27.344,3.906
1620953689.964,39.062,41.504,39.062,32.227,65.430
1620953689.968,37.109,42.969,36.621,27.344,-1.465
1620953689.972,30.762,39.551,39.062,26.367,-30.762
1620953689.976,23.438,40.527,41.504,37.598,48.828
1620953689.980,30.273,40.039,39.551,48.340,85.938
1620953689.984,35.156,38.574,39.551,39.062,16.113
1620953689.988,25.391,34.668,32.715,28.809,9.766
1620953689.991,31.738,33.691,30.762,38.086,80.566
1620953689.995,49.805,33.203,36.133,38.574,38.574
1620953689.999,38.086,38.574,32.715,31.738,20.020
1620953690.003,15.137,39.062,29.297,28.809,64.453
1620953690.007,10.742,34.668,27.344,30.273,58.105
1620953690.020,23.438,35.645,23.926,38.086,35.156
1620953690.024,24.902,35.156,23.438,35.645,82.520
1620953690.028,19.043,34.180,24.902,25.879,78.613
1620953690.032,24.414,37.598,26.855,28.809,20.996
1620953690.036,28.809,37.109,30.762,45.410,38.086
1620953690.040,30.762,27.344,34.668,44.922,62.988
1620953690.044,22.949,27.344,33.203,29.297,11.719
1620953690.047,14.648,33.203,29.297,20.996,0.488
1620953690.051,19.043,33.203,29.785,23.438,-19.531
1620953690.055,25.879,33.691,32.715,28.320,-13.184
1620953690.059,21.484,35.156,33.203,18.555,18.066
1620953690.063,11.719,34.180,30.762,1.465,23.926
1620953690.059,14.160,33.203,26.855,3.906,12.207
1620953690.063,19.043,34.668,26.367,18.555,-29.297
1620953690.067,22.949,34.180,31.250,23.926,-13.184
1620953690.071,19.043,36.621,35.156,8.301,1.465
1620953690.075,8.301,38.574,33.203,4.395,38.574
1620953690.079,16.113,34.180,34.668,22.949,20.020
1620953690.083,19.043,32.715,38.086,25.879,-21.973
1620953690.086,14.648,31.738,38.574,21.973,-24.414
1620953690.090,20.508,39.062,35.645,25.879,-23.926
1620953690.094,31.250,38.574,32.715,25.879,-44.434
1620953690.098,24.414,27.832,34.668,25.879,-28.809
1620953690.102,19.531,28.809,31.738,27.832,0.977
1620953690.114,29.297,29.297,23.926,25.879,-21.973
1620953690.118,35.156,33.203,21.484,28.809,4.395
1620953690.122,34.180,34.668,22.949,34.668,12.207
1620953690.126,20.508,37.109,22.949,25.391,-30.273
1620953690.130,23.926,33.203,23.926,22.949,14.160
1620953690.134,31.738,28.320,27.832,28.320,73.242
1620953690.138,22.949,31.250,32.227,31.250,70.312
1620953690.141,18.066,32.715,29.785,40.039,57.129
1620953690.145,12.695,34.668,27.344,35.645,30.762
1620953690.149,15.625,33.691,27.344,32.715,9.766
1620953690.153,20.508,36.621,28.320,36.621,-6.348
1620953690.157,21.484,37.109,27.344,32.715,-21.484
1620953690.151,24.902,38.574,27.832,28.809,-11.230
1620953690.155,28.320,45.898,27.832,26.367,51.758
1620953690.159,33.691,45.410,23.438,30.762,15.625
1620953690.163,39.551,41.016,19.043,30.762,-41.992
1620953690.167,40.039,35.645,22.461,24.414,-4.883
1620953690.171,23.438,34.180,29.297,22.461,16.602
1620953690.175,24.414,36.621,31.738,20.508,31.250
1620953690.178,34.668,34.180,29.785,21.484,32.227
1620953690.182,23.926,38.574,28.809,15.137,-27.344
1620953690.186,16.113,41.504,29.297,3.418,9.277
1620953690.190,14.648,38.086,32.227,11.230,5.371
