timestamps,TP9,AF7,AF8,TP10,Right AUX
1620953181.725,8.789,32.227,45.410,26.855,-53.223
1620953181.729,15.137,30.273,49.316,19.043,-5.371
1620953181.733,25.391,25.391,50.293,14.648,12.207
1620953181.737,40.527,30.762,52.246,30.762,4.395
1620953181.741,34.180,39.551,50.781,39.062,44.922
1620953181.745,27.832,41.992,51.270,30.273,32.715
1620953181.749,36.133,43.945,57.617,21.973,-17.578
1620953181.752,32.715,43.457,55.176,22.461,59.570
1620953181.756,31.250,41.992,47.852,25.879,85.449
1620953181.760,27.832,45.410,46.387,22.461,-13.672
1620953181.764,33.691,44.434,49.316,11.719,37.109
1620953181.768,24.414,42.480,46.387,18.555,79.590
1620953181.770,14.160,43.457,43.945,13.184,-23.926
1620953181.774,21.973,42.480,40.527,13.184,2.930
1620953181.778,19.531,42.969,40.039,11.230,82.520
1620953181.782,3.906,41.992,41.504,9.766,19.531
1620953181.786,6.348,44.922,38.086,5.371,-10.254
1620953181.789,2.441,44.922,36.621,3.906,16.602
1620953181.793,-0.488,43.945,39.062,13.184,-30.273
1620953181.797,-0.977,45.410,39.551,17.578,6.836
1620953181.801,-1.953,41.992,39.062,10.742,32.715
1620953181.805,-3.418,41.504,33.691,6.348,-19.043
1620953181.818,6.348,38.086,32.715,16.113,-71.777
1620953181.822,15.625,36.621,36.621,28.320,-5.859
1620953181.826,23.926,37.109,37.598,19.531,55.664
1620953181.830,30.273,38.086,40.527,13.672,59.570
1620953181.834,31.250,38.086,34.180,20.020,11.230
1620953181.838,31.250,36.133,32.227,19.043,-14.160
1620953181.842,27.832,35.645,38.574,20.020,17.090
1620953181.845,24.902,39.062,36.133,15.625,21.973
1620953181.849,30.762,38.086,35.156,10.254,40.527
1620953181.853,45.898,35.645,35.156,20.996,31.738
1620953181.857,50.781,39.062,36.133,21.484,45.410
1620953181.861,33.691,41.016,37.598,11.719,55.176
1620953181.857,28.809,35.156,37.109,13.184,59.570
1620953181.861,36.133,30.273,37.598,22.949,63.965
1620953181.865,34.180,35.156,38.086,24.902,23.438
1620953181.869,5.859,36.621,38.574,16.602,-34.180
1620953181.873,-6.836,34.668,33.691,9.277,-26.367
1620953181.877,16.602,40.527,30.273,8.789,0.000
1620953181.881,19.531,45.410,31.250,12.207,-46.387
1620953181.884,1.465,44.922,29.785,11.719,-20.508
1620953181.888,-0.488,43.945,29.297,5.371,-8.301
1620953181.892,7.812,41.016,33.203,9.277,-43.945
1620953181.896,26.367,46.387,39.062,18.066,-32.715
1620953181.900,41.016,51.758,41.992,22.461,0.000
1620953181.912,40.039,46.387,39.062,13.184,20.508
1620953181.916,42.480,47.363,37.598,16.113,-35.156
1620953181.920,39.551,44.434,32.715,26.855,16.113
1620953181.924,27.832,34.180,30.273,20.996,61.035
1620953181.928,30.762,35.645,33.203,12.207,57.617
1620953181.932,29.785,40.527,32.715,13.184,101.074
1620953181.936,28.809,42.480,33.203,23.438,71.777
1620953181.939,22.949,44.434,36.133,27.832,3.418
1620953181.943,1.953,40.039,33.203,28.320,-28.809
1620953181.947,3.418,40.039,32.715,29.785,-23.926
1620953181.951,20.508,39.551,34.668,28.320,16.113
1620953181.955,43.457,33.203,34.180,31.250,-8.789
1620953181.950,38.086,33.691,32.227,22.461,-16.113
1620953181.954,22.461,43.457,33.203,13.184,-16.602
1620953181.958,25.879,43.457,35.645,19.531,-48.340
1620953181.962,27.344,39.062,36.621,23.438,29.785
1620953181.966,27.344,36.133,37.598,16.602,49.805
1620953181.970,29.297,31.738,37.598,5.371,42.480
1620953181.974,31.250,32.715,36.621,9.277,60.059
1620953181.977,31.250,32.715,34.180,20.508,19.531
1620953181.981,17.578,32.715,39.551,22.461,-30.762
1620953181.985,20.020,35.645,41.016,13.672,11.230
1620953181.989,22.949,36.133,40.039,12.695,44.434
1620953181.993,22.949,37.598,41.504,18.066,72.266
1620953182.006,19.043,35.645,40.527,21.484,41.992
1620953182.010,10.742,37.109,43.457,25.879,13.672
1620953182.014,16.113,38.086,36.133,19.043,40.039
1620953182.018,24.902,39.551,30.273,24.414,3.418
1620953182.022,34.180,41.992,31.738,34.180,-18.555
1620953182.026,43.457,37.598,27.832,27.344,-40.039
1620953182.030,42.969,34.180,27.832,17.090,-15.625
1620953182.033,29.297,35.156,29.297,22.949,15.625
1620953182.037,17.090,40.527,31.250,40.039,-25.391
1620953182.041,11.719,46.387,35.156,37.598,-9.766
1620953182.045,-0.488,40.039,34.668,21.973,-11.719
1620953182.049,6.348,36.621,33.691,22.461,0.488
1620953182.043,36.133,42.969,35.645,24.902,47.363
1620953182.047,51.270,46.387,36.133,20.996,21.973
1620953182.051,28.320,45.410,34.668,15.625,-14.160
1620953182.055,20.020,47.363,34.668,12.695,-8.789
1620953182.059,20.996,48.340,33.203,23.438,22.461
1620953182.063,17.578,43.945,30.273,32.715,11.719
1620953182.067,26.855,41.016,27.832,25.879,7.324
1620953182.070,21.484,40.527,30.273,20.996,-22.949
1620953182.074,22.949,35.645,31.250,20.996,-16.113
1620953182.078,26.855,30.762,24.902,17.578,-31.250
1620953182.082,22.949,33.691,29.785,19.531,-8.301
1620953182.086,19.043,38.574,33.203,13.672,16.113
1620953182.100,14.648,36.133,28.320,13.672,32.715
1620953182.104,22.461,31.250,30.762,27.344,69.336
1620953182.108,15.625,31.250,34.180,32.227,13.184
1620953182.112,-1.953,33.691,37.598,19.531,50.293
1620953182.116,0.000,39.062,41.992,18.066,70.801
1620953182.120,16.602,40.039,38.574,29.297,-10.254
1620953182.124,33.691,38.574,40.039,33.203,30.273
1620953182.127,41.992,39.062,41.992,20.508,40.527
1620953182.131,41.992,37.109,39.551,10.254,-7.324
1620953182.135,36.621,39.551,41.992,25.879,-2.930
1620953182.139,32.715,42.480,37.109,32.715,0.000
1620953182.143,33.203,40.527,38.574,22.461,49.805
1620953182.138,32.715,39.062,43.945,17.090,108.398
1620953182.142,26.367,37.598,46.875,26.855,75.684
1620953182.146,20.996,38.574,51.270,32.715,6.348
1620953182.150,22.461,39.551,49.316,26.367,-46.387
1620953182.154,24.902,42.969,52.246,23.438,-12.695
1620953182.158,31.738,45.898,57.617,32.227,48.340
1620953182.162,43.457,49.805,60.059,43.945,50.781
1620953182.165,53.711,53.223,63.965,45.898,11.719
1620953182.169,26.367,48.828,66.895,44.922,-12.695
1620953182.173,9.766,48.340,62.988,41.504,-8.301
1620953182.177,32.227,49.316,58.594,45.410,-1.953
1620953182.181,38.574,44.922,59.082,49.805,13.672
1620953182.193,35.156,50.293,59.082,46.387,1.953
1620953182.197,34.180,51.758,57.129,32.715,-31.250
1620953182.201,27.832,49.805,58.594,36.133,10.742
1620953182.205,40.527,52.246,60.059,41.016,32.715
1620953182.209,38.574,48.340,56.152,25.391,-27.832
1620953182.213,18.555,44.434,49.316,14.160,-5.859
1620953182.217,16.113,46.875,46.875,16.602,20.020
1620953182.220,25.391,50.781,46.875,29.297,80.566
1620953182.224,31.250,51.758,46.875,20.020,78.125
1620953182.228,17.578,50.781,41.016,11.230,-6.348
1620953182.232,15.137,46.387,35.645,12.207,17.578
1620953182.236,23.438,44.434,34.180,20.996,-18.066
1620953182.231,16.113,45.410,34.180,21.484,-2.441
1620953182.235,9.277,41.992,35.645,3.418,36.133
1620953182.239,19.531,37.109,34.180,3.906,32.227
1620953182.243,29.785,39.062,29.785,18.066,20.508
1620953182.247,21.484,34.180,23.926,26.367,-22.949
1620953182.251,13.184,26.855,24.414,22.949,28.320
1620953182.255,18.066,24.902,31.250,23.438,43.945
1620953182.258,33.691,24.902,35.645,30.273,-17.090
1620953182.262,41.016,24.414,36.133,32.227,23.438
1620953182.266,35.156,24.902,32.227,22.461,27.832
1620953182.270,21.484,23.926,31.250,11.230,-49.316
1620953182.274,17.578,23.926,34.668,22.461,-17.578
1620953182.287,18.555,30.762,35.645,35.645,-18.066
1620953182.291,18.555,32.227,40.527,35.645,17.578
1620953182.295,12.207,31.250,42.480,24.902,81.055
1620953182.299,6.836,30.273,40.039,22.461,5.859
1620953182.303,25.879,32.715,48.828,33.203,-12.695
1620953182.307,58.594,36.621,49.316,26.855,23.438
1620953182.311,41.992,40.527,44.434,18.555,34.668
1620953182.314,-1.953,41.016,48.340,24.414,17.090
1620953182.318,-2.930,34.180,48.828,32.227,15.137
1620953182.322,7.812,32.715,49.805,35.156,5.371
1620953182.326,12.207,39.551,44.434,23.438,23.438
1620953182.330,13.672,41.016,38.574,18.066,51.758
1620953182.325,16.113,40.527,37.598,17.090,-2.441
1620953182.329,22.949,39.062,36.621,12.695,-20.996
1620953182.333,37.109,39.551,34.180,11.230,62.012
1620953182.337,41.016,40.527,34.668,3.418,57.617
1620953182.341,39.551,40.039,36.133,7.812,-0.977
1620953182.345,34.180,39.551,35.645,18.066,46.387
1620953182.349,19.043,35.156,36.133,17.090,82.031
1620953182.352,11.719,35.645,37.109,5.371,67.383
1620953182.356,18.066,36.133,35.156,3.418,64.941
1620953182.360,15.625,34.668,37.109,13.184,45.410
1620953182.364,18.555,35.156,38.574,17.578,-33.691
1620953182.368,13.672,40.039,36.621,18.066,-43.945
1620953182.381,-1.465,43.457,35.645,16.602,-47.363
1620953182.385,22.461,44.434,38.574,22.461,-63.477
1620953182.389,42.969,47.363,43.945,29.297,-16.602
1620953182.393,34.668,46.387,42.480,17.090,18.066
1620953182.397,22.949,41.992,38.086,0.977,-0.488
1620953182.401,12.207,34.180,36.133,1.953,-34.668
1620953182.405,-13.184,27.832,31.738,7.324,-29.785
1620953182.408,-21.484,30.762,30.762,6.348,22.461
1620953182.412,-17.090,34.180,37.109,0.000,24.902
1620953182.416,-9.766,31.738,36.133,-4.395,18.555
1620953182.420,5.859,29.297,34.668,15.137,-19.531
1620953182.424,16.113,31.738,38.574,26.367,16.113
1620953182.420,26.855,33.691,39.551,16.602,41.016
1620953182.424,34.180,34.180,41.016,11.230,-11.230
1620953182.428,35.156,34.180,40.527,12.695,22.949
1620953182.432,20.996,34.668,32.715,17.090,34.180
1620953182.436,-1.465,37.109,28.320,21.484,48.340
1620953182.440,-2.930,35.156,29.785,14.160,97.168
1620953182.444,12.695,37.598,34.180,15.625,43.945
1620953182.447,25.391,41.016,38.086,20.996,-0.488
1620953182.451,16.113,42.969,38.574,13.672,9.766
1620953182.455,16.113,43.457,42.969,13.184,7.324
1620953182.459,32.715,43.457,44.434,21.484,-20.508
1620953182.463,44.922,47.852,43.945,22.461,-20.020
1620953182.475,48.340,43.457,45.410,20.996,20.996
1620953182.479,34.180,39.062,48.340,16.113,39.551
1620953182.483,29.785,38.086,45.410,15.137,34.180
1620953182.487,48.828,32.715,40.527,19.043,-14.648
1620953182.491,42.480,30.273,37.109,11.230,-7.812
1620953182.495,13.184,32.715,31.738,1.465,-9.277
1620953182.499,-1.953,32.715,32.227,0.977,-40.039
1620953182.502,-7.812,25.879,32.715,9.766,9.277
1620953182.506,-16.113,23.438,31.250,14.648,44.434
1620953182.510,-24.414,26.855,36.133,8.789,71.777
1620953182.514,-20.996,23.926,34.668,3.906,49.805
1620953182.518,-10.254,23.926,38.086,22.461,-11.230
1620953182.512,-6.836,31.250,39.551,31.738,6.836
1620953182.516,0.977,30.273,34.180,13.184,-14.160
1620953182.520,16.113,29.785,34.180,5.371,-43.945
1620953182.524,19.531,33.691,35.156,15.137,-24.414
1620953182.528,19.043,34.180,36.133,22.949,-28.809
1620953182.532,22.461,33.203,36.133,20.020,1.953
1620953182.536,16.602,36.133,34.180,16.113,45.898
1620953182.539,22.949,42.480,32.715,21.973,13.184
1620953182.543,32.715,38.574,32.227,35.156,-11.230
1620953182.547,34.668,41.016,35.645,36.621,15.137
1620953182.551,28.809,44.922,41.504,28.320,35.156
1620953182.555,20.996,43.457,39.062,23.926,77.148
1620953182.568,31.738,43.457,38.574,32.227,65.430
1620953182.572,43.945,43.945,41.504,34.180,34.668
1620953182.576,42.480,43.457,42.480,24.414,40.527
1620953182.580,32.715,36.621,41.504,13.184,42.480
1620953182.584,31.250,37.598,44.434,12.695,4.883
1620953182.588,48.828,42.480,48.828,28.809,-12.695
1620953182.592,57.129,41.992,50.781,23.926,30.762
1620953182.595,45.410,41.992,47.852,2.441,71.289
1620953182.599,11.719,41.504,40.527,10.742,53.223
1620953182.603,2.441,40.527,41.016,23.438,-28.809
1620953182.607,7.324,39.551,47.363,25.391,-27.344
1620953182.611,-13.672,32.715,49.805,26.855,37.598
1620953182.606,-16.602,32.715,53.711,22.949,73.242
1620953182.610,-8.789,34.668,51.270,27.344,62.988
1620953182.614,3.418,33.691,47.363,35.156,-7.324
1620953182.618,4.883,39.551,49.316,27.832,-30.273
1620953182.622,6.348,43.457,49.805,20.020,-0.488
1620953182.626,22.461,40.527,49.316,29.297,-32.715
1620953182.630,28.320,38.574,50.293,40.039,-39.062
1620953182.633,28.809,42.969,55.176,34.180,-15.137
1620953182.637,33.691,46.875,50.781,23.438,6.836
1620953182.641,39.551,48.340,41.992,19.531,-10.254
1620953182.645,41.992,48.340,43.945,27.832,37.109
1620953182.649,26.367,45.898,50.781,25.879,28.809
1620953182.662,18.066,47.852,55.176,14.160,13.184
1620953182.666,31.738,47.363,51.270,18.555,23.438
1620953182.670,57.617,46.387,44.434,28.809,7.324
1620953182.674,66.895,47.852,46.875,28.809,-7.324
1620953182.678,58.594,49.805,48.340,25.879,-31.738
1620953182.682,39.062,44.922,47.363,23.438,1.465
1620953182.686,8.301,42.969,48.828,23.926,22.461
1620953182.689,0.000,45.898,53.711,29.785,33.203
1620953182.693,5.371,45.410,51.270,19.531,31.250
1620953182.697,6.836,42.969,43.457,16.602,39.551
1620953182.701,15.137,40.039,39.551,23.438,2.930
1620953182.705,24.414,39.551,43.457,27.344,20.020
1620953182.701,27.832,41.504,47.363,21.484,63.477
1620953182.705,14.648,42.480,47.363,10.254,37.598
1620953182.709,8.789,42.480,46.387,24.414,45.410
1620953182.713,17.578,43.945,45.898,32.715,33.203
1620953182.717,20.996,39.062,44.922,25.879,14.648
1620953182.721,18.555,34.180,41.016,13.184,-5.859
1620953182.725,18.555,28.320,33.691,10.742,-22.949
1620953182.728,27.832,25.391,26.855,23.926,15.137
1620953182.732,39.551,29.297,29.297,26.855,24.902
1620953182.736,30.762,31.250,36.133,18.066,-13.184
1620953182.740,21.484,32.715,39.551,19.043,7.324
1620953182.744,36.133,37.109,39.062,20.020,41.992
1620953182.756,46.875,41.504,36.621,12.207,5.859
1620953182.760,34.180,41.016,32.715,9.277,12.207
1620953182.764,21.973,41.016,32.715,1.953,-0.977
1620953182.768,26.367,40.039,37.598,2.441,19.531
1620953182.772,33.691,33.203,38.574,13.184,74.219
1620953182.776,20.996,35.156,39.062,13.672,25.391
1620953182.780,19.531,37.598,37.598,6.348,-25.391
1620953182.783,26.367,33.203,41.016,15.137,-33.691
1620953182.787,23.438,37.109,45.410,34.180,-36.133
1620953182.791,14.160,45.410,39.551,29.785,-62.500
1620953182.795,6.836,42.969,37.109,18.066,-14.648
1620953182.799,27.344,39.062,35.645,20.996,43.945
1620953182.793,32.227,44.434,30.762,22.461,33.203
1620953182.797,15.625,39.551,35.645,30.762,56.641
1620953182.801,2.930,33.203,42.969,36.133,67.871
1620953182.805,7.812,36.621,38.086,27.832,23.438
1620953182.809,16.113,36.133,32.227,26.367,-11.719
1620953182.813,12.695,37.109,25.879,26.855,5.371
1620953182.817,0.977,40.527,27.832,23.438,59.570
1620953182.820,3.906,43.457,33.691,22.949,16.113
1620953182.824,18.066,42.480,27.832,24.902,20.996
1620953182.828,31.250,39.551,25.391,31.250,95.215
1620953182.832,33.203,39.551,28.809,28.320,-8.301
1620953182.836,31.738,39.551,34.668,26.855,-60.059
1620953182.850,36.133,38.086,39.551,36.133,-10.254
1620953182.854,44.922,35.645,44.922,33.203,23.926
1620953182.858,46.387,34.668,45.410,21.973,60.059
1620953182.862,40.039,35.156,43.457,16.113,83.496
1620953182.866,38.574,36.133,43.457,15.625,28.320
1620953182.870,31.738,35.156,41.016,20.020,21.973
1620953182.874,33.691,38.086,38.086,19.043,47.363
1620953182.877,50.293,41.504,35.645,13.184,20.996
1620953182.881,21.973,38.574,40.527,13.672,10.254
1620953182.885,9.766,34.668,40.039,27.344,20.508
1620953182.889,42.969,29.297,39.062,31.738,0.000
1620953182.893,33.203,25.879,43.457,23.438,37.598
1620953182.887,23.438,31.250,44.922,21.484,42.969
1620953182.891,22.461,33.691,48.340,26.855,-17.578
1620953182.895,9.766,31.250,48.340,41.504,1.465
1620953182.899,4.883,33.203,46.387,36.621,-25.391
1620953182.903,-9.766,29.785,41.016,17.090,-24.902
1620953182.907,-8.301,27.832,36.133,12.207,19.531
1620953182.911,9.766,32.227,38.086,22.461,63.965
1620953182.914,12.695,30.762,35.645,20.508,107.422
1620953182.918,1.953,29.297,31.250,6.836,50.293
1620953182.922,7.812,30.273,35.645,10.742,21.973
1620953182.926,24.902,28.320,41.992,25.879,-1.465
1620953182.930,26.855,29.785,42.969,30.273,-25.879
1620953182.943,18.555,32.715,41.992,16.602,11.719
1620953182.947,16.113,35.645,43.945,12.207,1.465
1620953182.951,28.320,41.992,43.945,27.832,-42.480
1620953182.955,43.457,44.434,42.969,27.832,-35.156
1620953182.959,51.758,46.875,43.457,15.137,21.973
1620953182.963,51.758,51.758,44.922,12.695,7.324
1620953182.967,37.109,50.781,42.969,17.090,-45.898
1620953182.970,27.344,47.363,43.945,22.461,-17.578
1620953182.974,36.133,47.363,46.387,19.043,-47.852
1620953182.978,47.363,43.457,44.434,11.719,-3.418
1620953182.982,34.180,33.691,44.922,10.742,67.383
1620953182.986,26.367,32.227,44.922,25.391,38.086
1620953182.982,23.438,36.133,39.551,26.367,12.695
1620953182.986,11.719,31.738,40.527,13.184,-46.875
1620953182.990,-13.184,24.902,44.922,19.531,-75.684
1620953182.994,-19.043,28.320,46.387,32.715,-47.852
1620953182.998,4.395,38.086,51.758,32.227,-15.137
1620953183.002,8.789,47.852,55.176,20.508,39.551
1620953183.006,17.578,43.945,56.152,27.344,66.406
1620953183.009,22.461,43.457,54.688,27.832,45.898
1620953183.013,4.883,50.293,45.410,15.625,7.324
1620953183.017,3.906,46.387,47.363,13.184,-19.531
1620953183.021,-2.441,41.504,51.758,-2.930,8.301
1620953183.025,-6.348,42.480,48.828,-11.230,47.852
1620953183.056,16.113,44.434,51.758,6.348,0.000
1620953183.060,36.133,47.852,51.270,13.672,-35.645
1620953183.064,33.691,45.898,46.387,1.953,38.574
1620953183.068,28.320,46.387,45.410,-0.488,56.641
1620953183.072,36.133,45.898,43.457,10.742,-13.672
1620953183.076,49.316,45.898,41.992,16.113,-20.020
1620953183.080,46.875,45.410,38.574,13.184,25.879
1620953183.083,30.762,42.969,32.227,19.043,14.160
1620953183.087,28.320,43.945,32.715,35.645,-11.230
1620953183.091,31.250,41.504,35.156,41.504,-22.461
1620953183.095,28.320,41.016,34.180,27.832,34.180
1620953183.099,30.762,41.992,35.645,20.996,15.625
1620953183.077,42.969,41.992,39.551,30.273,3.418
1620953183.081,59.570,39.062,43.457,39.062,53.711
1620953183.085,49.316,31.738,42.969,34.180,35.645
1620953183.089,15.137,32.715,42.480,25.879,15.137
1620953183.093,9.766,39.551,48.828,22.461,32.227
1620953183.097,20.508,39.062,56.152,27.832,23.926
1620953183.101,10.742,39.062,57.617,26.855,5.371
1620953183.104,12.695,44.434,58.594,18.066,8.789
1620953183.108,19.531,45.410,58.105,13.672,-5.371
1620953183.112,15.625,43.457,54.688,18.555,8.301
1620953183.116,18.066,41.016,56.152,28.809,64.941
1620953183.120,20.508,36.621,58.594,20.996,80.078
1620953183.132,16.602,38.086,59.082,13.184,20.020
1620953183.136,20.508,42.480,60.547,26.855,12.207
1620953183.140,30.762,41.992,57.129,37.109,18.555
1620953183.144,26.367,40.039,53.223,28.320,27.344
1620953183.148,15.625,40.527,52.246,20.996,-7.812
1620953183.152,16.602,41.504,51.270,26.367,-17.578
1620953183.156,25.879,43.457,51.758,39.551,46.387
1620953183.159,36.133,43.945,52.734,31.250,70.801
1620953183.163,41.504,42.969,51.270,18.555,-9.766
1620953183.167,44.434,41.992,50.293,26.855,25.879
1620953183.171,43.945,41.992,47.363,34.668,47.363
1620953183.175,46.875,44.434,48.340,27.832,-21.484
1620953183.169,55.664,46.387,49.805,18.066,6.836
1620953183.173,62.988,46.387,42.480,15.137,22.949
1620953183.177,65.918,45.410,38.574,23.926,-7.812
1620953183.181,45.410,37.109,43.457,33.691,-5.859
1620953183.185,18.555,31.738,44.922,29.297,-10.742
1620953183.189,7.812,37.598,42.969,25.879,50.293
1620953183.193,1.953,37.598,46.875,32.227,50.293
1620953183.196,10.742,35.645,49.316,36.621,7.324
1620953183.200,13.184,36.621,49.316,33.203,30.273
1620953183.204,10.254,32.715,50.781,29.297,78.125
1620953183.208,22.949,27.344,45.898,25.391,68.848
1620953183.212,21.484,25.391,42.480,26.855,-6.348
1620953183.225,11.230,26.367,46.387,25.391,19.531
1620953183.229,0.000,28.809,45.898,8.789,33.203
1620953183.233,0.977,31.250,44.434,6.348,6.348
1620953183.237,17.090,32.715,45.410,16.113,32.227
1620953183.241,22.949,31.738,46.387,13.184,-16.113
1620953183.245,20.020,34.180,46.387,4.883,0.488
1620953183.249,30.273,35.645,43.945,13.184,30.762
1620953183.252,45.898,34.180,41.504,24.902,11.719
1620953183.256,44.922,37.109,42.480,23.438,13.672
1620953183.260,33.691,40.039,43.457,21.484,-8.789
1620953183.264,33.203,38.574,42.969,18.555,3.906
1620953183.268,36.621,36.621,37.598,25.879,24.902
1620953183.282,35.645,34.180,37.109,35.156,20.508
1620953183.286,32.227,34.180,44.434,35.156,-37.109
1620953183.290,27.832,39.062,51.758,30.273,-52.734
1620953183.294,33.203,39.062,56.152,40.527,-17.090
1620953183.298,35.645,35.645,49.805,44.434,-43.457
1620953183.302,36.133,37.109,41.504,28.320,-66.406
1620953183.306,29.297,40.527,40.039,16.113,-14.160
1620953183.309,20.508,37.109,37.109,20.996,42.480
1620953183.313,26.367,38.086,38.086,34.180,8.301
1620953183.317,26.367,41.504,36.621,30.762,28.809
1620953183.321,7.812,41.992,30.762,14.160,49.805
1620953183.325,7.812,42.480,30.762,9.766,5.859
1620953183.318,13.184,43.457,30.273,14.160,1.953
1620953183.322,13.184,39.551,30.273,19.531,15.625
1620953183.326,12.695,37.598,33.691,21.973,40.039
1620953183.330,4.395,37.109,35.645,10.254,10.742
1620953183.334,0.000,35.156,40.039,18.555,54.199
1620953183.338,9.766,36.621,38.574,35.645,86.914
1620953183.342,13.672,31.250,36.621,29.297,22.949
1620953183.345,5.371,28.320,35.645,21.973,26.367
1620953183.349,7.812,33.203,34.180,18.555,39.062
1620953183.353,21.973,35.645,37.109,23.438,4.883
1620953183.357,31.738,33.691,34.668,25.391,-34.180
1620953183.361,31.738,28.809,29.297,17.578,26.855
1620953183.356,17.578,23.438,30.762,18.555,63.477
1620953183.360,11.719,25.879,34.668,26.367,12.207
1620953183.364,18.555,32.715,36.133,29.297,-41.016
1620953183.368,19.531,30.762,31.250,20.020,-7.812
1620953183.372,22.461,34.180,24.902,6.836,-31.738
1620953183.376,29.785,35.156,23.926,2.930,-5.859
1620953183.380,25.879,26.855,26.855,9.277,69.824
1620953183.383,8.789,29.785,24.414,4.395,31.250
1620953183.387,11.230,33.203,22.949,2.930,30.273
1620953183.391,17.578,28.809,28.320,14.160,88.867
1620953183.395,19.043,28.809,30.273,25.391,-3.418
1620953183.399,20.996,29.785,28.809,21.973,-47.852
1620953183.412,7.324,32.227,27.344,15.137,30.273
1620953183.416,9.277,33.203,22.949,18.555,24.902
1620953183.420,24.902,31.738,20.996,23.438,35.156
1620953183.424,31.738,30.762,20.996,21.973,3.906
1620953183.428,35.645,33.203,21.484,10.742,-9.766
1620953183.432,25.879,36.621,26.367,9.766,-19.043
1620953183.436,17.578,40.039,29.297,22.461,23.438
1620953183.439,35.156,35.156,36.133,30.273,58.105
1620953183.443,29.785,29.785,45.898,26.855,7.324
1620953183.447,16.113,34.180,50.293,25.391,16.113
1620953183.451,22.949,35.645,47.852,30.273,22.949
1620953183.455,26.367,36.621,44.434,33.203,8.301
1620953183.450,25.391,41.992,43.945,23.926,-12.207
1620953183.454,18.555,45.898,43.945,14.160,18.066
1620953183.458,23.438,47.363,42.480,20.996,42.969
1620953183.462,38.574,46.387,39.551,30.762,-7.324
1620953183.466,40.527,48.828,37.109,24.902,23.926
1620953183.470,32.715,47.363,38.574,17.578,54.688
1620953183.474,36.133,48.340,35.156,20.996,26.367
1620953183.477,40.527,49.316,28.320,23.438,-30.273
1620953183.481,21.973,43.945,34.668,26.855,-64.453
1620953183.485,7.812,44.434,41.992,23.438,-44.922
1620953183.489,20.508,46.387,43.945,25.879,49.805
1620953183.493,22.461,42.969,42.480,39.551,57.617
1620953183.506,14.648,41.504,37.109,36.621,49.805
1620953183.510,17.090,44.922,36.133,23.438,107.422
1620953183.514,20.996,47.852,33.691,14.648,66.406
1620953183.518,21.484,47.363,34.668,15.137,-3.906
1620953183.522,35.156,49.805,39.551,26.367,-15.137
1620953183.526,27.832,50.293,39.551,22.461,-37.109
1620953183.530,18.066,47.363,34.180,9.277,-34.668
1620953183.533,39.062,44.434,24.902,2.930,-60.059
1620953183.537,38.086,40.039,20.996,12.207,-17.578
1620953183.541,19.531,41.992,21.973,18.555,-17.090
1620953183.545,18.066,41.504,25.391,6.836,-8.789
1620953183.549,21.484,43.457,22.949,7.324,59.082
1620953183.545,17.578,46.387,20.996,18.066,78.125
1620953183.549,15.625,36.133,26.855,17.578,47.852
1620953183.553,16.113,39.551,31.250,9.766,14.648
1620953183.557,11.230,51.758,35.156,6.836,27.344
1620953183.561,26.855,43.457,41.992,17.090,21.973
1620953183.565,40.039,38.086,41.992,24.414,36.133
1620953183.569,25.879,36.621,36.133,22.461,27.832
1620953183.572,8.301,34.180,33.691,20.508,37.598
1620953183.576,5.371,37.598,35.156,23.926,3.906
1620953183.580,12.695,34.668,38.574,29.785,-4.883
1620953183.584,11.230,31.250,36.133,20.996,38.086
1620953183.588,10.254,36.621,36.133,16.602,50.293
1620953183.600,13.672,37.109,32.715,19.531,33.203
1620953183.604,8.301,33.203,28.320,26.855,-15.625
1620953183.608,6.348,32.715,34.180,35.156,9.766
1620953183.612,12.207,36.133,37.598,32.227,21.484
1620953183.616,11.719,40.527,40.039,23.438,9.766
1620953183.620,24.414,41.016,40.527,19.531,-20.020
1620953183.624,41.016,43.457,37.109,16.602,16.602
1620953183.627,38.574,43.457,36.621,3.418,72.266
1620953183.631,13.184,40.039,38.086,-4.883,26.855
1620953183.635,10.254,40.527,38.574,13.184,-20.020
1620953183.639,21.484,41.016,35.156,20.996,37.598
1620953183.643,20.996,40.527,30.762,9.277,44.922
1620953183.637,17.578,37.598,30.762,4.883,-21.484
1620953183.641,20.996,34.180,29.785,15.625,-41.504
1620953183.645,28.809,39.551,27.344,20.996,0.488
1620953183.649,35.156,41.504,30.762,20.996,9.766
1620953183.653,47.852,40.039,35.156,21.484,-40.527
1620953183.657,45.898,40.039,35.156,14.648,12.695
1620953183.661,45.898,38.086,39.551,22.461,13.672
1620953183.664,55.664,41.016,45.410,30.762,-50.781
1620953183.668,29.785,46.387,48.828,26.367,-50.781
1620953183.672,11.719,46.387,50.293,20.996,-38.086
1620953183.676,22.949,48.828,46.875,27.832,-16.113
1620953183.680,25.879,51.758,47.363,39.551,6.348
1620953183.693,15.625,47.852,53.223,29.785,27.832
1620953183.697,15.137,42.969,54.199,20.996,30.762
1620953183.701,17.090,43.457,55.664,33.203,24.902
1620953183.705,17.578,40.527,53.711,40.527,22.461
1620953183.709,16.602,37.109,54.199,37.598,51.270
1620953183.713,11.230,37.598,55.664,20.508,65.918
1620953183.717,16.602,36.133,53.223,15.625,4.883
1620953183.720,27.344,40.039,50.293,25.879,13.672
1620953183.724,14.648,43.457,49.805,21.484,48.340
1620953183.728,2.930,39.062,51.758,11.719,32.227
1620953183.732,3.418,31.250,43.945,5.371,11.719
1620953183.736,5.859,33.203,36.621,9.277,38.086
1620953183.731,18.066,33.203,36.621,10.742,54.199
1620953183.735,8.301,29.297,39.551,3.418,26.855
1620953183.739,11.719,31.250,39.062,2.930,5.859
1620953183.743,31.250,36.133,36.621,12.207,-24.414
1620953183.747,25.879,36.621,39.551,23.438,-16.113
1620953183.751,20.020,37.109,41.992,23.438,34.180
1620953183.755,24.414,38.574,37.109,10.742,-23.926
1620953183.758,26.855,35.156,28.809,15.137,-7.324
1620953183.762,33.691,39.062,25.879,31.250,77.637
1620953183.766,38.574,43.945,28.809,27.832,6.836
1620953183.770,18.555,42.480,30.273,17.578,-51.758
1620953183.774,10.742,42.480,25.391,20.508,5.371
1620953183.787,21.484,42.969,23.926,28.809,23.926
1620953183.791,33.203,43.945,24.414,25.879,9.766
1620953183.795,27.344,38.574,32.227,14.648,23.438
1620953183.799,3.906,32.715,37.598,8.301,2.930
1620953183.803,17.578,33.691,36.133,12.695,-22.949
1620953183.807,47.363,38.574,35.645,16.602,15.137
1620953183.811,22.949,37.598,30.762,11.719,48.828
1620953183.814,-6.836,34.180,29.297,4.395,16.602
1620953183.818,6.836,35.645,27.344,13.184,-19.043
1620953183.822,25.879,40.039,29.297,23.438,-13.184
1620953183.826,29.297,41.016,36.621,20.508,5.371
1620953183.830,18.066,34.180,37.598,17.578,27.344
1620953183.826,19.043,34.668,38.086,26.367,41.016
1620953183.830,16.113,38.574,35.156,35.156,23.926
1620953183.834,12.695,37.109,30.273,31.738,14.160
1620953183.838,14.648,36.133,26.367,20.508,14.160
1620953183.842,8.301,34.180,22.461,16.113,19.043
1620953183.846,21.973,32.227,23.926,22.461,25.879
1620953183.850,50.781,35.156,23.926,24.414,25.879
1620953183.853,42.480,42.969,26.367,16.113,48.340
1620953183.857,19.043,41.992,32.227,14.648,-15.137
1620953183.861,33.203,39.062,35.645,28.809,-39.062
1620953183.865,46.387,41.504,37.109,36.133,-12.695
1620953183.869,27.344,46.387,41.504,33.203,-32.227
1620953183.881,9.277,49.805,45.410,22.949,-34.668
1620953183.885,21.484,49.316,41.992,20.996,-5.371
1620953183.889,43.457,51.270,39.551,31.250,30.273
1620953183.893,44.434,50.781,40.527,22.461,38.574
1620953183.897,41.504,46.387,42.480,3.906,34.180
1620953183.901,37.109,41.504,42.480,2.441,45.898
1620953183.905,29.785,39.551,40.039,14.160,35.645
1620953183.908,21.484,39.551,38.574,13.672,30.762
1620953183.912,4.883,38.086,34.668,9.766,-1.953
1620953183.916,14.648,34.180,33.691,14.648,-8.301
1620953183.920,21.484,29.785,31.250,15.625,23.926
1620953183.924,17.090,26.367,33.691,20.020,12.207
1620953183.937,0.488,26.367,38.086,14.160,50.781
1620953183.941,-13.672,29.297,35.645,4.883,16.602
1620953183.945,-6.348,32.227,37.109,17.090,-26.855
1620953183.949,10.742,32.227,39.062,30.762,-9.277
1620953183.953,17.090,32.227,34.668,16.602,10.742
1620953183.957,10.742,33.691,36.621,10.254,-36.621
1620953183.961,14.160,32.715,35.156,23.926,-29.297
1620953183.964,33.691,33.203,28.320,31.250,24.414
1620953183.968,45.410,37.109,34.668,22.461,30.273
1620953183.972,45.898,38.574,41.016,13.672,11.719
1620953183.976,34.668,35.156,36.621,17.090,-22.461
1620953183.980,14.160,36.133,28.809,25.391,23.438
1620953183.958,17.090,36.133,23.438,27.832,-15.137
1620953183.962,30.273,34.180,23.926,16.113,-40.527
1620953183.966,38.574,37.598,27.832,16.113,16.602
1620953183.970,39.062,38.086,30.273,27.832,50.293
1620953183.974,21.973,40.039,31.250,27.832,-18.555
1620953183.978,5.371,40.039,31.250,18.066,-13.672
1620953183.982,-4.395,34.180,26.855,10.742,3.418
1620953183.985,-1.465,32.715,19.531,11.230,-6.836
1620953183.989,20.996,33.203,22.949,13.672,30.762
1620953183.993,25.879,35.156,24.902,-0.488,-31.738
1620953183.997,16.113,32.227,22.949,-4.395,-49.316
1620953184.001,16.602,31.250,26.855,16.113,-26.367
1620953184.012,25.391,34.180,32.227,26.367,0.000
1620953184.016,21.484,29.785,33.691,19.531,20.020
1620953184.020,18.066,33.203,34.180,20.020,23.438
1620953184.024,23.926,37.598,41.016,24.414,1.953
1620953184.028,37.598,34.180,37.109,17.578,31.738
1620953184.032,35.156,34.180,32.227,21.484,48.828
1620953184.036,20.020,41.992,35.156,33.203,4.883
1620953184.039,22.461,45.898,42.480,42.969,26.367
1620953184.043,19.531,41.992,48.340,29.785,59.082
1620953184.047,16.113,41.504,46.875,17.578,40.039
1620953184.051,12.695,39.551,49.316,16.602,17.578
1620953184.055,21.973,33.691,53.223,16.602,-21.973
1620953184.068,38.086,33.203,48.828,25.391,-22.949
1620953184.072,38.574,38.574,43.945,29.297,14.160
1620953184.076,17.578,45.410,45.898,20.996,36.133
1620953184.080,7.812,41.992,47.363,15.137,89.355
1620953184.084,21.484,36.621,46.387,22.949,46.875
1620953184.088,15.625,34.668,43.945,31.250,-18.066
1620953184.092,5.371,33.691,39.062,25.391,5.859
1620953184.095,8.301,35.645,37.598,14.648,47.852
1620953184.099,23.438,39.551,34.668,12.207,56.152
1620953184.103,38.086,44.922,31.250,19.531,7.324
1620953184.107,31.250,43.457,39.551,19.531,-20.020
1620953184.111,27.832,42.969,53.223,17.090,2.441
1620953184.107,30.762,42.969,59.082,18.066,36.133
1620953184.111,24.414,41.504,52.734,28.809,52.246
1620953184.115,33.691,41.504,43.457,35.156,1.465
1620953184.119,40.527,45.410,41.016,25.879,-1.465
1620953184.123,30.273,49.805,46.875,25.879,2.930
1620953184.127,37.109,47.852,51.758,32.715,9.277
1620953184.131,35.645,47.363,50.293,32.227,-17.578
1620953184.134,28.809,45.898,51.270,28.320,2.441
1620953184.138,38.574,44.434,51.270,17.578,25.391
1620953184.142,46.875,46.875,52.246,17.578,-35.156
1620953184.146,36.133,42.969,55.176,33.203,-3.906
1620953184.150,14.648,38.574,57.129,38.086,70.801
1620953184.162,8.301,39.062,55.664,28.809,56.152
1620953184.166,28.320,37.109,55.664,25.391,-30.762
1620953184.170,36.621,34.668,60.547,35.156,-33.691
1620953184.174,5.371,36.621,61.035,40.527,42.969
1620953184.178,-0.488,39.551,55.176,32.227,29.785
1620953184.182,7.812,38.086,52.246,18.555,27.344
1620953184.186,16.113,36.621,47.852,25.879,33.203
1620953184.189,32.715,32.227,43.945,28.320,-9.766
1620953184.193,27.344,33.203,47.363,8.789,-32.227
1620953184.197,26.367,37.109,50.781,3.906,26.367
1620953184.201,34.180,37.109,43.945,10.254,-8.789
1620953184.205,25.879,41.504,33.691,18.066,-75.195
1620953184.200,17.578,45.410,31.250,18.066,-15.625
1620953184.204,21.484,44.434,28.809,10.254,19.531
1620953184.208,28.320,41.504,28.320,14.648,21.484
1620953184.212,34.668,41.992,27.344,20.996,73.730
1620953184.216,44.922,45.898,28.320,20.996,23.926
1620953184.220,49.805,44.922,31.250,17.578,-18.066
1620953184.224,21.973,46.875,33.203,18.555,21.484
1620953184.227,-2.441,47.852,36.133,29.785,62.012
1620953184.231,18.555,43.945,37.598,41.504,14.160
1620953184.235,29.785,43.457,33.691,28.809,-4.395
1620953184.239,26.855,48.828,28.809,12.695,40.039
1620953184.243,20.020,48.340,27.344,18.066,10.742
1620953184.256,22.461,44.922,28.320,28.320,-7.812
1620953184.260,36.133,46.875,28.809,26.855,4.395
1620953184.264,32.715,46.387,34.180,25.391,-14.160
1620953184.268,27.344,47.852,39.062,37.109,-48.340
1620953184.272,32.715,49.805,34.668,43.457,-26.367
1620953184.276,39.062,45.410,29.785,38.574,3.418
1620953184.280,20.508,41.992,26.855,19.043,37.109
1620953184.283,12.695,39.062,28.809,7.812,38.086
1620953184.287,24.414,38.086,29.297,20.508,10.742
1620953184.291,25.879,39.551,28.320,23.438,43.945
1620953184.295,16.113,42.480,33.203,14.160,71.289
1620953184.299,10.742,43.457,32.227,14.648,115.234
1620953184.293,21.973,38.574,30.762,20.996,76.660
1620953184.297,37.109,41.016,27.832,21.973,17.578
1620953184.301,41.504,49.805,27.344,21.484,9.766
1620953184.305,41.016,48.340,29.785,11.230,-21.973
1620953184.309,72.266,42.969,26.855,13.672,-26.367
1620953184.313,67.871,40.039,27.344,23.926,-20.996
1620953184.317,16.602,38.086,25.879,19.531,15.137
1620953184.320,0.488,38.574,23.438,9.766,40.527
1620953184.324,2.441,38.574,23.926,17.578,7.324
1620953184.328,13.184,36.621,25.879,29.297,23.438
1620953184.332,17.090,40.527,28.320,21.484,4.883
1620953184.336,20.996,42.969,29.785,9.766,-33.691
1620953184.351,20.996,41.504,35.156,15.625,58.105
1620953184.355,20.508,38.574,40.527,23.438,69.336
1620953184.359,23.926,43.457,36.133,23.926,37.109
1620953184.363,30.762,44.922,38.086,19.531,57.617
1620953184.367,27.344,38.086,43.457,15.137,26.855
1620953184.371,22.949,35.156,40.039,25.879,39.551
1620953184.375,29.297,37.598,34.180,32.227,39.551
1620953184.378,20.996,35.156,30.273,16.602,55.176
1620953184.382,15.625,36.621,33.203,19.043,83.984
1620953184.386,21.484,41.992,36.133,35.156,42.480
1620953184.390,29.785,41.016,36.133,44.922,43.457
1620953184.394,37.109,41.992,38.086,42.969,-15.137
1620953184.407,28.809,39.551,36.621,28.320,-36.621
1620953184.411,18.555,35.645,38.086,27.832,40.527
1620953184.415,14.648,35.645,36.621,23.926,33.691
1620953184.419,17.578,31.738,34.180,14.160,-22.461
1620953184.423,32.227,28.809,31.738,14.648,-46.387
1620953184.427,28.320,30.762,30.762,12.207,-1.953
1620953184.431,5.859,28.320,34.180,22.461,-16.602
1620953184.434,9.766,28.809,27.832,30.273,-36.133
1620953184.438,26.855,35.645,23.438,10.742,-22.949
1620953184.442,26.367,37.598,28.809,6.348,12.695
1620953184.446,16.602,36.621,29.297,18.066,-9.277
1620953184.450,9.277,36.133,24.414,20.020,-11.719
1620953184.445,10.254,41.992,26.855,17.578,57.129
1620953184.449,23.926,45.898,32.227,18.066,8.789
1620953184.453,31.738,41.016,28.320,27.344,-59.082
1620953184.457,22.461,37.598,31.250,32.715,-82.520
1620953184.461,25.879,41.016,36.133,25.391,-20.508
1620953184.465,34.180,39.551,32.227,13.184,31.738
1620953184.469,31.738,32.715,34.180,9.277,22.949
1620953184.472,12.207,36.133,38.086,18.555,13.184
1620953184.476,-2.441,39.062,39.062,28.809,50.293
1620953184.480,5.859,37.598,41.992,18.555,53.223
1620953184.484,1.953,39.062,45.898,13.184,-7.812
1620953184.488,6.836,40.039,47.363,32.715,12.695
1620953184.482,20.508,38.574,46.387,34.180,59.570
1620953184.486,22.949,38.574,45.898,13.184,43.945
1620953184.490,23.438,36.133,45.898,11.719,11.719
1620953184.494,28.320,34.668,48.828,26.855,-18.555
1620953184.498,38.574,36.621,51.270,36.621,20.508
1620953184.502,44.434,39.551,53.711,27.832,25.391
1620953184.506,34.180,49.316,51.270,20.508,-20.508
1620953184.509,27.832,53.711,51.270,25.879,12.207
1620953184.513,43.945,50.781,52.246,31.250,-11.230
1620953184.517,41.992,46.875,49.316,29.785,-27.344
1620953184.521,32.715,47.363,53.711,22.461,-8.789
1620953184.525,44.922,48.828,56.152,28.320,19.531
1620953184.537,36.133,46.875,49.316,37.598,-4.883
1620953184.541,13.672,41.504,44.922,38.574,17.090
1620953184.545,10.742,43.457,49.316,22.949,26.855
1620953184.549,22.461,51.758,54.199,9.766,13.184
1620953184.553,28.320,47.363,55.176,24.414,49.805
1620953184.557,35.156,47.852,48.828,21.973,18.066
1620953184.561,16.113,50.293,48.828,10.742,-17.090
1620953184.564,-9.277,46.387,52.734,13.672,31.738
1620953184.568,-12.695,39.062,49.316,22.461,57.129
1620953184.572,-9.766,32.715,46.387,29.297,56.152
1620953184.576,-4.395,40.039,45.410,20.996,38.574
1620953184.580,-2.930,43.945,47.852,11.719,25.879
1620953184.575,8.789,39.551,53.223,17.090,55.664
1620953184.579,23.438,33.691,51.270,25.879,11.230
1620953184.583,29.785,30.273,48.828,39.062,12.207
1620953184.587,20.020,33.691,47.852,30.273,18.066
1620953184.591,22.949,36.133,46.875,17.578,-6.836
1620953184.595,35.645,36.621,51.270,26.367,-17.578
1620953184.599,38.086,34.668,52.246,24.902,-6.836
1620953184.602,46.387,35.645,52.246,13.672,-57.617
1620953184.606,36.133,36.133,52.734,14.160,-47.363
1620953184.610,28.320,32.227,48.340,26.367,-10.254
1620953184.614,51.270,31.250,44.434,27.832,-26.367
1620953184.618,30.762,34.180,41.504,23.438,-10.742
1620953184.631,-1.465,37.109,43.457,19.531,14.648
1620953184.635,11.719,40.039,43.457,25.391,16.113
1620953184.639,6.348,39.551,44.434,32.715,-14.160
1620953184.643,-8.789,37.109,45.898,34.668,-46.387
1620953184.647,-0.488,40.527,41.992,29.297,-8.789
1620953184.651,19.043,41.504,41.016,25.879,-14.160
1620953184.655,29.297,39.062,44.922,33.691,-40.527
1620953184.658,18.555,43.945,45.898,26.855,58.594
1620953184.662,10.742,44.434,44.434,15.625,66.406
1620953184.666,17.090,40.527,41.992,16.113,-1.953
1620953184.670,20.508,40.527,37.109,17.090,58.594
1620953184.674,15.625,43.945,37.598,23.926,36.621
1620953184.670,13.672,40.527,40.527,24.902,0.977
1620953184.674,15.137,37.109,39.551,23.438,-2.930
1620953184.678,24.414,41.504,35.156,29.785,-28.320
1620953184.682,33.691,44.434,33.691,40.527,-8.301
1620953184.686,35.156,40.527,32.227,20.996,15.137
1620953184.690,32.227,33.691,33.691,0.488,-1.953
1620953184.694,27.832,33.203,37.109,14.648,-41.992
1620953184.697,34.668,31.250,38.086,23.926,-62.988
1620953184.701,36.133,29.297,36.621,15.625,-32.227
1620953184.705,9.766,32.715,33.691,3.906,23.438
1620953184.709,-16.602,29.297,33.203,5.859,0.977
1620953184.713,-7.324,27.344,31.250,21.484,-27.832
1620953184.725,16.113,30.273,32.227,28.320,1.465
1620953184.729,10.254,31.738,34.668,24.414,-4.395
1620953184.733,0.977,36.621,34.180,20.996,12.207
1620953184.737,20.996,39.551,36.133,30.273,-2.441
1620953184.741,28.809,37.598,38.574,37.598,-71.289
1620953184.745,22.461,30.762,36.133,19.043,-38.086
1620953184.749,35.156,32.715,35.156,6.348,42.969
1620953184.752,46.875,37.109,38.086,24.902,64.941
1620953184.756,28.809,36.621,40.527,36.133,4.395
1620953184.760,17.578,40.527,38.574,20.996,-18.066
1620953184.764,11.719,39.551,35.645,2.930,-29.785
1620953184.768,21.973,37.598,31.738,8.789,-18.555
1620953184.762,45.410,38.086,35.156,19.043,63.965
1620953184.766,36.133,38.574,41.992,22.461,83.008
1620953184.770,6.348,39.551,43.457,23.926,49.805
1620953184.774,-3.418,33.203,44.922,20.996,12.695
1620953184.778,6.836,31.738,42.480,23.438,-12.207
1620953184.782,13.184,33.203,35.645,19.531,21.973
1620953184.786,14.648,31.738,33.691,12.207,18.555
1620953184.789,14.648,30.762,37.598,6.348,-0.488
1620953184.793,19.531,26.367,40.039,16.113,-31.250
1620953184.797,6.836,21.484,38.574,30.762,-54.199
1620953184.801,4.883,23.926,35.156,18.555,15.137
1620953184.805,7.812,23.438,32.715,11.230,33.691
1620953184.818,6.836,24.414,33.691,18.066,39.062
1620953184.822,14.648,29.785,32.715,21.484,20.996
1620953184.826,3.906,25.879,29.297,3.906,5.859
1620953184.830,-9.766,22.949,32.715,-9.766,49.805
1620953184.834,-12.695,28.320,38.086,0.000,24.414
1620953184.838,10.254,27.832,34.668,12.695,24.414
1620953184.842,12.695,24.414,33.691,10.742,-22.461
1620953184.845,-13.672,26.367,37.109,2.441,19.043
1620953184.849,-5.859,30.273,35.156,-0.977,8.301
1620953184.853,11.230,35.645,31.738,3.906,-6.348
1620953184.857,18.066,36.621,32.227,12.207,70.312
1620953184.861,30.273,36.621,32.715,9.766,23.438
1620953184.856,33.203,41.016,31.738,2.930,33.203
1620953184.860,32.227,39.551,32.227,18.066,78.125
1620953184.864,34.668,41.992,32.715,26.367,67.871
1620953184.868,30.762,43.457,33.691,25.391,41.016
1620953184.872,26.367,38.086,38.574,22.949,3.418
1620953184.876,23.438,39.062,39.062,22.461,-6.348
1620953184.880,23.438,42.480,39.062,36.621,14.648
1620953184.883,11.230,40.527,40.039,35.645,43.945
1620953184.887,7.324,35.645,41.504,21.484,67.383
1620953184.891,16.113,32.715,43.457,22.949,39.551
1620953184.895,28.809,27.344,43.945,29.785,-3.418
1620953184.899,35.645,24.414,47.363,25.391,34.180
1620953184.912,27.344,28.809,44.922,12.207,46.387
1620953184.916,21.973,37.109,39.062,5.371,84.961
1620953184.920,30.273,41.504,35.645,12.207,108.398
1620953184.924,48.828,42.969,31.738,13.184,78.125
1620953184.928,50.293,41.504,30.762,-4.883,49.316
1620953184.932,2.441,39.551,30.762,-12.207,7.324
1620953184.936,-21.484,37.598,34.180,0.977,-0.488
1620953184.939,6.836,41.016,39.062,10.254,33.691
1620953184.943,15.137,44.922,40.527,5.371,22.949
1620953184.947,24.902,44.434,41.504,5.859,16.113
1620953184.951,25.879,46.387,41.016,18.555,-0.977
1620953184.955,22.949,42.969,39.551,27.832,-18.066
1620953184.969,22.949,40.527,41.016,32.227,2.930
1620953184.973,2.930,42.480,39.062,32.715,-7.324
1620953184.977,17.090,41.016,33.203,36.133,-12.695
1620953184.981,40.039,39.551,30.762,36.133,15.625
1620953184.985,43.457,43.457,28.320,32.227,37.109
1620953184.989,34.180,46.875,29.785,26.855,50.781
1620953184.993,22.461,41.016,34.668,31.250,-14.160
1620953184.996,22.949,38.086,35.645,39.551,-35.156
1620953185.000,20.020,39.062,38.574,43.945,22.461
1620953185.004,12.695,35.645,40.527,36.133,60.547
1620953185.008,22.461,34.668,39.062,22.949,-17.090
1620953185.012,46.387,39.551,39.551,32.715,-62.500
1620953185.006,70.312,47.363,39.551,42.969,-30.762
1620953185.010,51.758,47.363,35.645,36.133,-46.875
1620953185.014,7.324,39.062,31.250,34.668,20.508
1620953185.018,8.301,38.574,32.715,43.457,33.691
1620953185.022,16.602,45.898,36.133,24.414,4.395
1620953185.026,6.836,50.781,38.086,-3.418,19.043
1620953185.030,7.812,53.711,31.250,-9.766,1.953
1620953185.033,-0.977,53.711,28.809,-11.719,71.289
1620953185.037,-8.301,50.781,34.668,-9.766,45.410
1620953185.041,7.324,48.828,40.039,6.836,-72.266
1620953185.045,5.859,46.387,36.133,0.977,-20.508
1620953185.049,11.719,48.340,32.715,-3.906,45.410
1620953185.043,49.316,48.828,36.621,18.555,20.996
1620953185.047,52.246,46.875,37.109,24.902,27.344
1620953185.051,42.969,41.504,41.992,20.996,34.180
1620953185.055,41.504,39.062,45.410,18.066,21.484
1620953185.059,56.641,41.504,44.434,26.855,12.207
1620953185.063,51.758,39.062,42.480,40.527,29.297
1620953185.067,7.324,40.039,43.945,33.691,29.297
1620953185.070,-12.695,43.457,44.434,22.461,-2.930
1620953185.074,-13.184,41.016,46.387,26.855,-5.859
1620953185.078,10.742,38.574,52.734,32.715,4.395
1620953185.082,32.227,37.109,56.641,33.203,68.359
1620953185.086,32.715,36.133,55.664,23.926,42.969
1620953185.100,15.625,40.039,58.594,24.902,22.949
1620953185.104,19.531,41.992,62.500,40.039,54.199
1620953185.108,41.992,43.457,65.918,49.316,72.266
1620953185.112,46.387,46.875,66.895,47.852,33.691
1620953185.116,47.363,49.805,64.941,38.086,37.109
1620953185.120,47.363,46.875,59.570,30.273,38.574
1620953185.124,40.527,41.016,53.223,24.902,25.391
1620953185.127,46.387,41.992,53.223,11.719,44.922
1620953185.131,41.016,39.062,52.734,-3.418,72.754
1620953185.135,14.648,35.645,46.875,5.371,43.457
1620953185.139,1.465,41.504,43.945,17.578,24.414
1620953185.143,13.184,43.945,44.922,17.578,28.320
1620953185.137,15.137,43.457,42.480,11.230,-13.672
1620953185.141,19.531,44.922,41.504,11.719,24.902
1620953185.145,37.109,44.922,45.898,24.902,32.715
1620953185.149,43.945,43.457,46.387,30.762,34.180
1620953185.153,32.227,43.457,49.805,27.344,10.742
1620953185.157,7.812,46.875,55.664,27.344,-20.508
1620953185.161,1.465,47.363,57.129,37.109,5.859
1620953185.164,12.695,46.387,59.082,46.875,23.926
1620953185.168,17.578,49.316,61.523,43.945,4.883
1620953185.172,13.672,53.223,65.918,42.480,-19.531
1620953185.176,22.461,53.223,66.895,50.293,-22.949
1620953185.180,38.574,49.316,65.918,64.453,-3.418
1620953185.193,42.969,50.781,67.383,62.012,20.996
1620953185.197,36.133,50.293,69.336,39.062,33.203
1620953185.201,40.527,50.781,67.871,34.668,42.969
1620953185.205,45.898,53.711,62.500,40.039,62.012
1620953185.209,38.086,54.688,63.965,36.621,46.387
1620953185.213,30.273,58.594,62.012,24.414,-0.977
1620953185.217,21.973,58.105,58.594,20.508,7.812
1620953185.220,22.461,55.176,58.105,28.809,24.414
1620953185.224,36.621,59.570,51.270,23.438,17.090
1620953185.228,41.992,59.570,46.875,10.742,-7.324
1620953185.232,28.809,52.734,42.969,5.859,-15.137
1620953185.236,21.484,52.246,41.504,16.113,13.672
1620953185.232,25.879,49.805,41.016,16.602,28.320
1620953185.236,10.742,44.434,36.621,0.488,24.414
1620953185.240,-7.812,47.363,33.691,-6.348,26.855
1620953185.244,-2.930,52.734,35.156,7.812,-31.250
1620953185.248,2.930,46.875,39.551,14.160,-37.109
1620953185.252,3.418,43.945,40.527,4.395,-6.348
1620953185.256,0.000,41.992,41.504,-3.906,-15.137
1620953185.259,5.371,41.504,41.504,3.418,33.203
1620953185.263,17.090,42.480,35.156,20.020,33.691
1620953185.267,14.648,43.457,35.645,14.160,36.133
1620953185.271,14.648,42.480,37.109,6.836,19.043
1620953185.275,16.113,41.504,35.645,17.090,9.277
1620953185.287,28.809,43.945,36.621,32.227,23.438
1620953185.291,42.480,42.480,39.551,33.203,2.441
1620953185.295,39.551,43.457,46.387,29.297,-2.930
1620953185.299,44.434,41.504,46.875,32.715,5.371
1620953185.303,34.180,37.109,43.457,44.922,-6.348
1620953185.307,25.391,38.574,50.293,43.945,47.852
1620953185.311,24.414,41.504,53.223,32.227,59.570
1620953185.314,13.672,39.062,51.270,23.926,-34.180
1620953185.318,18.066,43.457,47.363,21.973,-39.062
1620953185.322,25.879,42.480,42.480,33.203,43.457
1620953185.326,22.461,40.039,40.527,28.809,82.031
1620953185.330,5.859,41.016,38.574,6.348,62.500
1620953185.325,0.488,36.621,44.434,18.066,33.203
1620953185.329,16.113,39.062,47.852,28.809,19.531
1620953185.333,25.391,41.016,45.898,13.672,21.484
1620953185.337,11.719,39.551,43.457,10.742,13.672
1620953185.341,6.836,43.457,39.551,16.602,19.043
1620953185.345,20.996,42.480,34.668,19.043,22.461
1620953185.349,30.273,41.504,33.203,14.160,-34.180
1620953185.352,18.555,41.992,34.668,2.930,6.348
1620953185.356,-2.441,38.574,32.715,1.465,37.109
1620953185.360,-3.906,39.551,27.832,7.324,24.414
1620953185.364,-0.488,37.598,23.438,7.324,-20.020
1620953185.368,1.465,36.133,22.949,-4.395,-64.941
1620953185.381,10.742,39.551,26.367,-12.207,-2.441
1620953185.385,16.113,35.645,21.484,-10.742,28.809
1620953185.389,27.832,32.715,16.602,2.441,-7.812
1620953185.393,40.527,33.691,21.973,5.371,-28.809
1620953185.397,23.926,30.762,31.250,-1.465,-8.789
1620953185.401,18.066,32.715,37.598,1.953,0.977
1620953185.405,35.645,36.133,42.480,17.090,1.465
1620953185.408,37.109,30.762,50.293,15.137,41.992
1620953185.412,22.461,27.344,55.664,6.348,20.020
1620953185.416,8.789,31.738,58.594,18.066,-8.301
1620953185.420,11.719,30.762,62.012,37.109,-35.645
1620953185.424,25.391,25.879,63.477,44.922,-0.977
1620953185.418,34.180,30.273,60.059,29.785,54.688
1620953185.422,42.969,32.715,60.059,17.090,33.691
1620953185.426,7.812,27.344,61.523,25.391,30.762
1620953185.430,-31.738,22.461,60.547,30.273,-5.859
1620953185.434,-17.578,22.949,64.941,27.832,17.578
1620953185.438,-5.859,27.832,70.312,24.902,74.219
1620953185.442,3.418,33.203,67.871,26.367,23.926
1620953185.445,10.254,28.809,61.523,30.762,-43.945
1620953185.449,17.090,26.367,55.664,27.344,-31.738
1620953185.453,15.625,26.855,58.594,15.625,-25.879
1620953185.457,9.766,23.926,63.965,6.836,-15.137
1620953185.461,9.277,24.414,61.523,16.602,-38.574
1620953185.475,19.531,25.879,58.594,24.902,-50.781
1620953185.479,16.602,26.855,53.223,22.461,28.320
1620953185.483,15.137,27.832,52.734,26.367,17.578
1620953185.487,26.855,26.855,48.828,20.508,11.719
1620953185.491,18.066,26.367,42.480,9.766,93.750
1620953185.495,18.066,29.785,40.527,9.277,52.246
1620953185.499,17.578,31.250,37.109,3.906,-40.039
1620953185.502,19.531,29.297,33.691,5.859,-22.949
1620953185.506,23.438,39.551,32.227,18.066,3.418
1620953185.510,23.438,44.434,31.250,11.719,20.508
1620953185.514,18.555,41.504,34.180,1.465,29.785
1620953185.518,10.254,41.504,37.109,3.418,12.207
1620953185.513,21.973,41.992,34.668,7.812,5.859
1620953185.517,38.574,43.457,31.738,12.695,5.371
1620953185.521,33.691,42.969,35.156,11.230,24.902
1620953185.525,15.625,42.480,37.109,12.207,4.883
1620953185.529,17.578,42.969,35.156,29.785,-61.523
1620953185.533,31.738,41.992,37.598,38.086,53.711
1620953185.537,34.668,42.969,43.945,33.691,66.406
1620953185.540,27.832,43.945,45.410,30.762,-15.625
1620953185.544,17.578,43.457,39.551,38.574,48.828
1620953185.548,24.902,43.457,40.527,39.062,77.148
1620953185.552,29.785,42.969,41.992,23.438,58.594
1620953185.556,27.832,43.945,40.527,20.508,21.484
1620953185.569,29.297,41.992,41.504,29.785,20.996
1620953185.573,31.738,43.945,41.504,41.504,56.152
1620953185.577,24.902,46.875,41.992,42.969,63.477
1620953185.581,6.348,41.504,47.363,33.691,69.336
1620953185.585,8.301,41.016,46.875,27.344,27.344
1620953185.589,16.602,39.062,42.969,29.785,-63.477
1620953185.593,14.648,37.598,41.016,32.715,-22.461
1620953185.596,9.277,39.062,39.062,17.578,1.465
1620953185.600,18.555,40.527,39.062,6.836,-26.855
1620953185.604,17.090,40.527,37.598,23.438,-20.996
1620953185.608,19.043,40.527,35.156,28.809,13.184
1620953185.612,35.156,46.875,38.574,22.461,32.227
1620953185.607,31.250,46.387,41.016,20.996,6.348
1620953185.611,26.367,41.992,37.598,23.438,11.230
1620953185.615,29.785,47.852,38.574,34.668,-28.320
1620953185.619,36.621,45.898,37.598,26.855,-54.199
1620953185.623,25.879,41.992,36.133,15.137,36.621
1620953185.627,22.461,43.457,36.621,21.973,59.082
1620953185.631,34.180,39.551,36.133,23.438,21.973
1620953185.634,36.621,38.086,33.203,14.160,88.379
1620953185.638,36.621,41.016,31.738,11.230,54.688
1620953185.642,38.574,41.992,34.180,19.043,-25.391
1620953185.646,45.410,41.992,34.180,24.414,-21.484
1620953185.650,35.645,39.551,34.668,25.391,0.000
1620953185.662,37.109,43.457,33.691,15.137,41.504
1620953185.666,56.641,42.480,29.297,12.207,32.715
1620953185.670,61.035,35.645,28.809,26.855,26.367
1620953185.674,58.594,37.109,34.668,33.203,11.719
1620953185.678,35.645,35.645,37.598,25.879,23.926
1620953185.682,1.953,30.273,39.062,22.949,21.484
1620953185.686,-11.230,32.227,42.969,26.367,-9.766
1620953185.689,0.488,33.691,44.922,27.344,0.977
1620953185.693,0.977,27.832,41.992,22.461,-13.672
1620953185.697,-13.672,27.832,41.504,12.695,-10.254
1620953185.701,-5.859,30.762,42.480,19.531,35.645
1620953185.705,11.719,35.156,45.410,31.250,10.254
1620953185.700,11.719,34.180,56.641,33.203,17.578
1620953185.704,7.324,30.762,64.453,31.250,25.391
1620953185.708,12.207,29.785,62.500,20.020,-32.227
1620953185.712,18.555,35.156,57.129,23.438,-10.254
1620953185.716,25.391,40.039,58.105,37.598,-20.020
1620953185.720,30.273,34.668,62.500,40.039,-35.645
1620953185.724,32.715,40.039,58.105,32.715,55.176
1620953185.727,38.086,40.527,58.105,18.066,83.496
1620953185.731,39.551,35.645,59.082,17.090,19.043
1620953185.735,35.645,39.551,55.664,25.391,27.344
1620953185.739,32.715,40.039,54.199,16.602,16.602
1620953185.743,50.781,40.039,53.711,16.113,-24.414
1620953185.756,55.664,41.992,51.270,28.320,-11.719
1620953185.760,37.109,41.016,46.875,28.320,0.488
1620953185.764,25.879,40.527,44.922,19.043,54.688
1620953185.768,36.621,42.480,51.270,15.625,58.594
1620953185.772,42.969,44.922,60.059,23.438,20.508
1620953185.776,41.992,46.875,56.641,23.438,27.832
1620953185.780,40.527,46.387,53.711,13.672,44.434
1620953185.783,36.133,43.945,57.129,13.672,26.855
1620953185.787,41.016,39.551,60.547,23.926,-25.391
1620953185.791,6.836,31.738,60.059,27.344,-32.227
1620953185.795,-17.090,33.691,57.617,21.484,15.625
1620953185.799,-16.602,39.551,57.617,15.625,35.156
1620953185.795,-15.625,39.551,61.035,30.273,41.504
1620953185.799,-4.395,40.039,63.477,50.293,52.246
1620953185.803,4.395,41.016,64.453,41.992,-31.250
1620953185.807,4.883,41.992,64.941,26.855,-12.207
1620953185.811,10.254,45.410,61.035,31.250,-14.160
1620953185.815,19.043,45.410,61.523,36.133,-63.965
1620953185.819,27.344,42.480,58.594,29.785,-34.180
1620953185.822,29.297,42.480,56.152,26.367,-45.898
1620953185.826,27.344,45.898,56.152,36.133,-48.828
1620953185.830,46.875,49.805,50.781,51.758,-38.574
1620953185.834,63.477,53.223,48.828,47.852,-53.223
1620953185.838,55.176,52.246,43.457,35.156,-37.598
1620953185.850,50.293,52.246,38.574,30.273,12.207
1620953185.854,58.594,51.270,38.574,28.809,35.156
1620953185.858,56.641,48.828,43.457,31.250,26.855
1620953185.862,51.758,48.828,45.410,22.949,17.578
1620953185.866,46.875,47.363,45.410,12.695,67.871
1620953185.870,45.410,46.875,42.969,14.648,57.617
1620953185.874,38.086,46.875,44.434,20.996,1.953
1620953185.877,17.090,45.898,44.922,15.625,38.574
1620953185.881,4.395,48.828,44.922,14.648,62.012
1620953185.885,-2.441,47.852,48.828,32.715,51.758
1620953185.889,-7.324,40.527,49.316,46.875,59.570
1620953185.893,-5.371,41.016,49.316,39.551,2.930
1620953185.887,-6.836,41.992,50.293,26.367,-32.715
1620953185.891,-1.465,40.527,46.387,24.902,-3.906
1620953185.895,9.766,41.992,43.945,33.203,-6.836
1620953185.899,17.090,47.363,45.410,40.527,-6.836
1620953185.903,20.996,46.387,48.828,34.668,38.086
1620953185.907,24.414,43.457,49.805,30.273,55.664
1620953185.911,28.320,42.480,49.805,38.574,12.207
1620953185.914,29.297,35.156,44.922,46.387,-29.297
1620953185.918,25.391,35.156,38.574,47.363,15.137
1620953185.922,27.832,41.504,42.480,40.039,42.480
1620953185.926,39.551,42.480,45.410,37.598,9.766
1620953185.930,52.246,41.992,39.062,40.527,19.043
1620953185.943,49.805,44.434,37.109,30.762,90.820
1620953185.947,41.016,44.922,38.086,22.949,29.297
1620953185.951,50.781,40.527,39.551,25.391,-31.250
1620953185.955,58.105,34.668,36.621,28.809,26.367
1620953185.959,67.871,36.133,29.785,30.273,-14.648
1620953185.963,49.805,41.504,31.250,20.996,-5.371
1620953185.967,28.320,42.480,29.297,19.531,-39.551
1620953185.970,37.598,41.992,26.855,24.414,-20.508
1620953185.974,18.066,39.062,29.785,18.066,50.293
1620953185.978,7.812,40.527,25.391,9.277,1.953
1620953185.982,-11.719,38.574,23.926,8.301,22.461
1620953185.986,-37.109,34.668,28.809,15.625,41.504
1620953185.983,-11.230,33.691,34.668,22.461,6.836
1620953185.987,1.953,32.227,40.527,27.832,26.367
1620953185.991,1.953,33.203,44.434,29.785,33.691
1620953185.995,5.371,34.180,43.945,23.438,27.832
1620953185.999,9.766,35.645,36.621,25.391,44.922
1620953186.003,15.137,38.574,32.227,22.949,28.320
1620953186.007,12.207,41.016,36.621,18.555,36.621
1620953186.010,14.160,41.016,41.016,29.785,40.527
1620953186.014,26.367,41.992,42.480,38.086,-6.836
1620953186.018,35.156,41.504,46.387,35.645,27.344
1620953186.022,35.156,41.992,51.758,33.691,67.383
1620953186.026,39.062,41.016,52.734,34.668,1.953
1620953186.037,44.922,41.016,47.852,46.387,-5.371
1620953186.041,42.480,45.898,44.922,52.246,34.180
1620953186.045,42.969,47.363,47.363,43.945,-11.230
1620953186.049,48.828,46.387,50.781,42.969,-35.645
1620953186.053,60.059,47.363,48.340,57.129,-20.508
1620953186.057,62.012,48.828,44.922,62.500,4.883
1620953186.061,51.270,53.223,38.086,44.922,7.812
1620953186.064,34.180,51.270,38.086,31.250,1.953
1620953186.068,32.715,44.922,40.039,32.715,29.297
1620953186.072,43.457,46.875,38.086,38.574,22.461
1620953186.076,52.246,46.387,39.062,27.344,48.828
1620953186.080,58.594,44.922,39.551,7.324,83.984
1620953186.094,47.363,46.875,37.598,8.301,94.238
1620953186.098,25.391,45.898,34.180,20.508,74.707
1620953186.102,23.926,47.363,33.203,24.902,44.434
1620953186.106,20.020,45.410,32.715,17.578,68.848
1620953186.110,8.789,42.480,29.297,15.625,45.410
1620953186.114,24.414,45.898,31.250,21.973,6.348
1620953186.118,30.273,42.480,34.668,25.391,1.953
1620953186.121,4.883,36.133,34.668,11.230,-20.996
1620953186.125,-3.418,39.551,33.691,5.859,11.230
1620953186.129,0.000,49.316,32.227,17.578,37.598
1620953186.133,8.301,47.363,31.738,30.762,-20.996
1620953186.137,20.508,40.039,31.250,27.832,-38.574
1620953186.131,13.672,40.527,28.320,14.648,20.508
1620953186.135,10.742,42.480,32.227,20.508,51.270
1620953186.139,20.020,41.992,33.691,32.227,45.410
1620953186.143,21.484,40.039,32.715,34.180,28.809
1620953186.147,16.602,38.086,39.062,26.855,-21.973
1620953186.151,28.320,37.109,41.016,31.250,-22.461
1620953186.155,43.945,42.480,44.922,42.969,-20.996
1620953186.158,36.133,46.387,48.340,37.109,32.227
1620953186.162,20.996,45.410,46.875,28.320,70.312
1620953186.166,16.113,46.875,49.316,25.879,-11.230
1620953186.170,22.461,49.316,51.758,29.297,-7.812
1620953186.174,41.992,48.340,46.875,39.551,1.465
1620953186.168,41.016,50.781,40.039,22.461,29.785
1620953186.172,34.668,51.758,38.574,-1.465,79.102
1620953186.176,41.992,56.152,35.645,6.348,47.852
1620953186.180,42.969,60.547,35.156,19.043,27.832
1620953186.184,37.598,46.387,40.039,11.230,-37.109
1620953186.188,15.137,39.551,40.527,-1.953,-34.668
1620953186.192,1.953,42.969,35.645,2.930,43.457
1620953186.195,20.020,38.086,30.762,13.184,8.789
1620953186.199,31.250,35.645,25.391,7.324,-41.504
1620953186.203,20.996,40.527,29.785,-2.441,6.348
1620953186.207,15.625,37.598,34.668,-4.395,38.086
1620953186.211,20.996,38.574,25.391,4.883,8.789
1620953186.225,20.020,40.039,22.949,6.836,6.836
1620953186.229,10.254,34.668,26.855,1.953,60.059
1620953186.233,5.859,36.133,26.367,6.348,89.844
1620953186.237,15.625,37.109,25.879,18.555,47.363
1620953186.241,17.578,34.668,26.367,35.156,-3.418
1620953186.245,8.789,35.645,23.438,36.621,-0.977
1620953186.249,14.648,38.574,23.926,28.809,15.137
1620953186.252,31.738,42.480,30.273,28.320,40.039
1620953186.256,35.156,45.410,30.762,32.227,-4.883
1620953186.260,25.879,42.969,28.320,29.785,-19.531
1620953186.264,11.230,42.969,30.762,25.879,-25.391
1620953186.268,4.395,41.016,31.738,28.809,-56.152
1620953186.262,15.625,42.969,27.832,37.109,10.254
1620953186.266,29.297,45.410,27.832,34.668,90.332
1620953186.270,18.555,38.574,31.250,23.438,8.301
1620953186.274,12.695,38.574,31.250,20.508,-39.062
1620953186.278,21.973,41.016,31.250,21.973,50.781
1620953186.282,23.438,37.598,35.156,21.973,20.020
1620953186.286,24.902,37.109,33.203,18.066,-5.371
1620953186.289,33.691,42.480,35.645,15.625,25.391
1620953186.293,49.805,42.969,37.598,15.625,24.902
1620953186.297,41.504,41.016,37.109,26.367,13.184
1620953186.301,17.090,41.992,39.551,18.555,70.801
1620953186.305,5.371,40.527,40.039,-5.371,117.676
1620953186.318,11.719,36.133,41.992,-1.465,64.941
1620953186.322,18.066,34.668,43.457,12.695,1.953
1620953186.326,12.695,34.180,38.574,1.953,-39.551
1620953186.330,3.418,33.691,30.273,-10.254,-12.207
1620953186.334,-7.324,32.227,30.762,-0.977,-18.555
1620953186.338,1.953,22.949,38.574,15.137,-24.902
1620953186.342,24.902,24.414,39.551,9.277,-2.441
1620953186.345,40.527,33.691,40.039,6.348,5.859
1620953186.349,30.762,37.109,41.992,18.555,30.273
1620953186.353,22.949,33.203,42.480,32.227,8.789
1620953186.357,33.203,32.715,45.898,41.992,-19.531
1620953186.361,29.785,37.109,52.246,45.898,-64.941
1620953186.357,17.090,36.133,51.270,37.109,-61.035
1620953186.361,9.766,36.621,47.363,27.832,-3.418
1620953186.365,10.254,37.109,47.363,33.203,54.688
1620953186.369,11.719,39.551,49.805,30.273,12.695
1620953186.373,0.488,42.480,53.711,22.461,-41.016
1620953186.377,8.301,38.574,56.152,30.273,-1.953
1620953186.381,21.973,36.621,58.594,35.645,-19.531
1620953186.384,18.555,41.504,64.941,31.738,-86.426
1620953186.388,26.367,44.434,63.965,23.926,-42.969
1620953186.392,47.852,44.434,59.570,25.391,44.922
1620953186.396,56.641,44.434,56.152,28.809,82.031
1620953186.400,56.152,43.457,53.223,28.320,110.352
1620953186.431,53.223,45.898,53.223,27.344,50.781
1620953186.435,36.133,44.922,44.434,13.672,25.391
1620953186.439,26.855,43.457,41.992,18.555,20.996
1620953186.443,30.762,41.992,41.504,23.926,7.812
1620953186.447,22.949,38.086,39.551,9.277,16.602
1620953186.451,11.230,38.574,45.898,1.953,-32.227
1620953186.455,8.301,39.551,45.410,8.789,-2.441
1620953186.458,20.996,42.969,47.852,21.484,20.020
1620953186.462,35.156,46.875,54.199,27.344,-25.391
1620953186.466,34.180,47.363,55.664,26.855,3.418
1620953186.470,28.809,46.875,54.199,26.367,33.691
1620953186.474,30.273,43.945,55.664,32.715,27.832
1620953186.452,30.273,41.992,53.711,35.156,40.039
1620953186.456,15.625,41.504,51.758,33.691,-22.461
1620953186.460,10.254,41.992,55.176,32.227,-19.531
1620953186.464,30.762,44.434,55.664,40.527,3.906
1620953186.468,41.504,43.945,59.082,46.875,37.598
1620953186.472,38.086,45.410,64.941,35.156,74.219
1620953186.476,32.715,42.969,59.082,30.273,19.043
1620953186.479,43.945,37.598,50.781,33.203,0.488
1620953186.483,52.246,43.457,47.363,36.621,28.320
1620953186.487,29.297,46.387,49.805,35.156,-11.719
1620953186.491,18.066,44.922,50.781,25.879,-9.277
1620953186.495,27.344,48.340,48.340,25.391,11.230
1620953186.489,39.062,48.828,49.316,37.598,-1.465
1620953186.493,31.738,43.945,50.781,28.809,43.945
1620953186.497,17.578,38.086,55.176,23.926,33.203
1620953186.501,20.996,38.574,57.129,27.832,0.977
1620953186.505,34.668,44.434,54.199,25.391,54.199
1620953186.509,36.133,49.805,56.641,31.738,78.125
1620953186.513,32.715,51.270,63.965,26.367,1.465
1620953186.516,37.598,48.828,68.359,20.996,41.016
1620953186.520,32.227,44.922,67.871,26.367,45.410
1620953186.524,35.645,47.852,66.406,24.902,-14.648
1620953186.528,37.598,49.805,68.848,13.672,11.719
1620953186.532,40.039,45.898,71.289,17.090,-13.672
1620953186.543,42.480,43.945,68.359,25.879,48.340
1620953186.547,17.578,41.504,62.012,30.273,67.383
1620953186.551,3.418,46.387,57.617,25.391,15.625
1620953186.555,13.672,51.758,58.594,19.043,27.344
1620953186.559,35.645,48.340,58.105,20.020,5.859
1620953186.563,48.828,48.828,61.035,29.785,4.883
1620953186.567,36.621,53.223,62.988,26.367,22.949
1620953186.570,26.367,50.781,62.500,19.531,-21.484
1620953186.574,25.391,48.340,60.547,24.902,-17.578
1620953186.578,34.180,47.852,62.500,43.457,-5.371
1620953186.582,19.531,47.363,63.965,55.664,27.344
1620953186.586,-3.418,49.316,59.082,44.922,-7.812
1620953186.600,2.441,49.316,56.152,34.668,-17.578
1620953186.604,13.184,43.945,57.129,39.551,34.180
1620953186.608,27.832,44.922,60.059,43.945,-5.859
1620953186.612,38.574,49.805,58.105,30.273,-55.176
1620953186.616,33.203,50.781,58.105,18.066,-38.574
1620953186.620,29.297,50.293,53.223,24.902,-48.340
1620953186.624,37.109,50.781,47.363,23.926,-28.320
1620953186.627,50.293,55.176,49.805,12.695,13.184
1620953186.631,40.039,50.781,55.176,4.395,-23.438
1620953186.635,38.574,43.945,54.199,14.648,-20.020
1620953186.639,36.621,40.527,49.316,27.832,-25.879
1620953186.643,15.137,40.527,53.223,24.902,-9.766
1620953186.638,15.625,43.945,54.688,21.973,2.441
1620953186.642,22.461,43.945,57.617,25.879,-12.695
1620953186.646,33.691,50.293,57.129,33.203,37.109
1620953186.650,57.129,55.176,54.199,38.574,43.457
1620953186.654,58.105,55.664,55.176,36.621,18.066
1620953186.658,38.574,57.617,50.293,28.809,47.363
1620953186.662,44.434,53.711,46.875,32.715,24.414
1620953186.665,66.895,53.711,48.340,37.598,8.301
1620953186.669,44.922,52.734,49.805,38.574,43.945
1620953186.673,16.113,46.387,55.664,32.227,41.504
1620953186.677,18.555,42.969,58.105,31.250,23.926
1620953186.681,26.855,42.480,58.594,50.293,-10.254
1620953186.693,20.996,41.016,62.500,46.875,-19.531
1620953186.697,4.395,39.551,62.988,32.227,6.348
1620953186.701,1.953,43.457,56.152,41.504,9.766
1620953186.705,11.230,41.504,49.316,51.270,22.949
1620953186.709,19.531,40.039,47.852,40.039,70.312
1620953186.713,18.555,38.574,42.969,20.996,81.543
1620953186.717,19.531,37.109,40.527,18.555,91.309
1620953186.720,20.996,41.992,41.016,26.367,45.410
1620953186.724,28.320,44.434,37.598,25.391,-2.930
1620953186.728,39.551,46.387,34.180,10.742,4.883
1620953186.732,41.016,49.316,32.715,4.395,7.812
1620953186.736,22.949,50.781,29.785,18.555,-31.250
1620953186.750,18.066,50.293,27.344,17.090,-24.902
1620953186.754,31.738,47.852,25.391,-0.488,15.625
1620953186.758,28.809,46.875,28.320,5.859,25.879
1620953186.762,31.738,47.363,31.250,17.578,-4.395
1620953186.766,40.039,46.387,28.320,26.855,-9.277
1620953186.770,22.949,41.992,23.926,27.344,-34.180
1620953186.774,5.371,42.480,21.973,13.672,-49.805
1620953186.777,5.371,46.387,21.484,14.648,-5.371
1620953186.781,13.672,44.922,21.973,20.020,-20.508
1620953186.785,20.508,40.039,25.391,21.484,-40.527
1620953186.789,12.695,38.574,27.344,19.531,46.875
1620953186.793,3.906,34.180,23.926,15.625,-6.836
1620953186.795,18.555,31.250,21.484,27.344,-16.602
1620953186.799,22.949,29.297,24.902,32.227,20.996
1620953186.803,20.020,34.668,22.949,30.762,6.836
1620953186.807,26.855,37.109,22.461,34.668,28.320
1620953186.811,33.691,32.715,24.902,32.227,23.926
1620953186.814,8.301,28.809,25.391,14.648,21.484
1620953186.818,-18.066,22.949,28.320,11.719,24.414
1620953186.822,-8.789,23.926,28.320,13.672,56.641
1620953186.826,17.578,31.250,28.320,10.742,48.828
1620953186.830,25.879,37.598,31.738,2.441,11.230
1620953186.825,8.301,33.691,30.273,2.930,65.430
1620953186.829,11.230,26.855,30.273,12.695,77.148
1620953186.833,24.414,29.297,32.715,16.113,102.539
1620953186.837,11.230,31.738,32.715,6.348,120.605
1620953186.841,2.441,33.691,34.668,0.000,64.453
1620953186.845,8.301,33.691,32.715,2.930,41.016
1620953186.849,22.461,32.715,33.203,3.418,3.418
1620953186.852,26.855,39.062,41.016,6.836,-25.879
1620953186.856,29.785,40.039,45.898,10.254,8.301
1620953186.860,42.969,36.133,45.898,15.137,0.000
1620953186.864,32.715,35.645,46.875,20.020,-1.465
1620953186.868,22.949,36.133,49.316,18.066,-28.809
1620953186.900,17.090,37.109,46.387,8.301,-24.902
1620953186.904,3.418,35.156,47.363,18.066,45.410
1620953186.908,14.648,39.062,51.758,35.645,26.855
1620953186.912,20.508,43.457,52.734,38.574,11.719
1620953186.916,15.625,43.945,54.688,34.180,57.129
1620953186.920,30.273,44.922,52.246,26.855,52.246
1620953186.924,46.387,42.969,57.617,40.039,-39.062
1620953186.927,29.785,45.898,65.430,45.898,-19.043
1620953186.931,22.461,46.387,62.988,34.180,55.176
1620953186.935,23.926,44.434,67.871,32.227,-36.621
1620953186.939,25.879,44.434,71.289,42.480,15.137
1620953186.943,22.461,46.875,65.918,48.340,54.199
1620953186.938,17.090,44.434,65.918,27.832,35.156
1620953186.942,4.395,37.109,66.895,14.648,16.602
1620953186.946,3.418,36.133,62.012,21.973,34.180
1620953186.950,8.301,35.645,56.641,27.832,107.422
1620953186.954,18.066,34.668,53.223,23.926,34.668
1620953186.958,18.066,38.574,50.781,11.719,-19.043
1620953186.962,13.184,43.945,48.340,15.625,13.672
1620953186.965,28.809,47.363,47.852,22.461,20.996
1620953186.969,28.320,46.875,51.758,21.484,5.371
1620953186.973,29.785,48.340,55.664,13.672,-19.531
1620953186.977,26.855,53.223,52.734,-4.883,-4.395
1620953186.981,35.156,55.176,49.805,0.488,-20.508
1620953186.975,42.969,53.223,51.270,20.508,-15.137
1620953186.979,29.785,48.340,50.293,23.438,42.480
1620953186.983,14.160,45.410,48.828,23.926,47.363
1620953186.987,16.113,42.969,50.781,36.621,47.363
1620953186.991,27.344,40.039,54.199,47.852,-9.766
1620953186.995,26.855,35.645,46.387,25.879,0.488
1620953186.999,21.973,32.227,45.410,10.742,67.383
1620953187.002,19.043,32.715,49.316,19.531,56.641
1620953187.006,13.672,34.668,46.387,24.414,-24.902
1620953187.010,16.113,36.621,41.992,23.926,-62.012
1620953187.014,11.719,33.203,41.504,21.484,-20.508
1620953187.018,12.695,34.668,43.457,31.250,54.199
1620953187.012,34.668,42.969,42.969,40.039,71.777
1620953187.016,34.668,44.434,47.852,32.715,36.133
1620953187.020,21.973,44.922,47.852,24.902,77.148
1620953187.024,7.324,42.969,40.527,29.297,85.938
1620953187.028,19.531,43.945,41.992,38.574,29.785
1620953187.032,26.367,45.898,44.434,33.203,23.926
1620953187.036,14.160,46.387,47.363,16.113,-10.742
1620953187.039,16.602,42.480,43.457,6.348,-41.016
1620953187.043,17.090,41.504,36.621,13.672,-12.207
1620953187.047,37.598,37.598,36.133,19.043,10.254
1620953187.051,47.363,32.715,37.598,12.695,10.254
1620953187.055,34.180,37.109,41.992,3.418,6.348
1620953187.068,32.227,38.574,44.434,4.395,-32.227
1620953187.072,41.016,35.645,45.898,10.742,-68.848
1620953187.076,44.922,39.062,48.340,11.230,-15.137
1620953187.080,33.203,41.016,47.363,4.395,2.441
1620953187.084,26.855,41.016,38.574,3.418,16.602
1620953187.088,22.949,39.551,36.621,19.531,21.973
1620953187.092,12.695,29.785,42.969,29.785,9.766
1620953187.095,1.465,25.391,46.387,22.461,33.203
1620953187.099,-10.742,29.785,47.852,23.438,14.160
1620953187.103,-11.719,31.738,50.293,35.156,-15.137
1620953187.107,7.812,27.344,51.270,37.598,3.906
1620953187.111,17.578,27.832,53.711,34.668,11.230
1620953187.106,8.789,28.320,56.641,30.273,-5.859
1620953187.110,-1.953,26.855,56.641,41.016,35.156
1620953187.114,11.719,32.227,56.641,40.039,17.090
1620953187.118,17.578,36.621,55.176,23.438,12.695
1620953187.122,-1.953,35.645,50.781,10.742,66.895
1620953187.126,3.418,36.621,46.387,3.906,43.945
1620953187.130,4.883,34.180,41.504,12.695,27.344
1620953187.133,3.418,35.645,40.527,18.555,17.578
1620953187.137,19.043,42.480,37.109,1.465,0.977
1620953187.141,24.902,39.062,34.180,0.488,-30.762
1620953187.145,19.531,32.715,38.086,11.230,19.531
1620953187.149,20.996,33.691,37.598,5.371,80.078
1620953187.162,21.484,42.480,36.621,-1.953,66.895
1620953187.166,28.809,41.504,38.086,-2.930,47.363
1620953187.170,42.969,38.086,37.598,15.625,29.785
1620953187.174,40.527,40.039,35.645,18.066,16.113
1620953187.178,24.414,38.574,32.227,6.348,45.410
1620953187.182,26.367,40.527,32.227,-1.953,87.402
1620953187.186,28.320,41.992,40.527,5.371,48.828
1620953187.189,21.973,40.039,44.922,27.832,14.160
1620953187.193,20.996,41.992,37.598,24.414,-31.250
1620953187.197,24.414,45.898,31.250,15.137,-27.832
1620953187.201,17.578,43.457,35.645,15.137,-20.996
1620953187.205,5.859,40.039,37.598,18.066,-41.016
1620953187.201,7.812,39.551,41.504,24.902,-18.555
1620953187.205,11.719,39.551,43.945,21.484,-5.859
1620953187.209,29.785,37.598,37.109,15.137,3.418
1620953187.213,45.410,39.062,30.762,22.461,-3.418
1620953187.217,23.926,40.527,29.297,32.227,12.207
1620953187.221,-4.395,40.527,33.691,27.832,27.832
1620953187.225,-9.277,42.969,38.574,17.090,35.156
1620953187.228,-16.113,41.992,40.527,23.438,25.391
1620953187.232,-20.508,39.062,45.898,29.297,-51.270
1620953187.236,-13.672,43.457,49.316,21.973,-22.461
1620953187.240,-8.789,46.875,46.875,7.812,75.195
1620953187.244,2.441,46.875,42.480,1.465,53.711
1620953187.256,16.113,47.363,43.945,13.672,-8.789
1620953187.260,18.555,46.875,42.480,17.578,-0.977
1620953187.264,26.367,44.922,41.504,4.395,26.367
1620953187.268,36.621,45.410,41.504,5.859,46.875
1620953187.272,48.340,42.480,36.133,21.973,0.488
1620953187.276,49.805,39.062,36.621,19.043,-26.855
1620953187.280,41.992,37.598,42.480,9.766,-12.695
1620953187.283,39.551,33.691,48.828,7.812,-10.742
1620953187.287,23.926,28.809,52.246,6.348,-23.926
1620953187.291,9.766,28.809,49.805,11.230,1.465
1620953187.295,2.441,32.227,41.992,9.277,10.742
1620953187.299,-10.254,29.297,41.016,0.977,5.859
1620953187.312,-0.488,28.809,41.016,12.695,12.207
1620953187.316,22.461,32.227,35.156,23.438,-16.602
1620953187.320,14.160,32.715,34.180,24.414,-9.766
1620953187.324,-1.465,33.691,33.203,19.043,65.430
1620953187.328,7.812,38.574,39.062,16.602,58.594
1620953187.332,25.391,38.086,46.387,25.879,24.902
1620953187.336,31.250,32.227,45.410,27.344,43.945
1620953187.339,17.578,30.273,46.387,24.414,7.324
1620953187.343,8.789,28.809,46.875,21.973,13.184
1620953187.347,30.762,34.668,41.992,32.715,8.789
1620953187.351,44.434,38.086,41.992,33.691,26.367
1620953187.355,26.855,36.621,45.410,26.367,27.344
1620953187.333,3.418,37.598,47.852,27.344,13.672
1620953187.337,0.000,33.691,46.387,23.438,69.336
1620953187.341,7.812,24.414,43.945,25.391,8.301
1620953187.345,7.324,21.973,40.039,11.230,-8.301
1620953187.349,2.930,21.484,41.016,-0.977,29.785
1620953187.353,8.301,21.484,44.434,5.859,34.180
1620953187.357,19.043,23.926,39.062,8.301,26.855
1620953187.360,36.133,20.508,37.109,8.789,-46.875
1620953187.364,40.527,28.809,42.969,9.277,-36.621
1620953187.368,36.621,37.598,44.434,14.648,-7.812
1620953187.372,32.715,34.668,41.016,26.367,28.809
1620953187.376,31.250,35.645,35.645,24.902,73.730
1620953187.387,27.344,38.086,35.645,12.207,26.367
1620953187.391,26.367,38.574,36.133,9.277,-21.484
1620953187.395,35.645,38.086,40.039,28.320,-3.418
1620953187.399,38.086,39.551,43.457,38.574,7.812
1620953187.403,29.785,42.969,42.480,29.785,29.297
1620953187.407,23.926,46.875,40.527,14.160,101.074
1620953187.411,38.574,45.898,37.109,13.672,82.031
1620953187.414,51.758,40.527,31.738,25.879,19.043
1620953187.418,48.828,42.480,35.156,17.090,18.555
1620953187.422,36.621,41.504,41.504,5.371,-64.453
1620953187.426,37.109,40.039,42.969,14.648,-2.441
1620953187.430,27.832,44.922,45.410,27.344,85.449
1620953187.443,-6.348,43.945,54.688,30.273,28.809
1620953187.447,-1.465,45.898,59.570,18.555,55.664
1620953187.451,10.742,47.852,52.734,17.090,90.332
1620953187.455,3.418,38.086,45.410,28.320,39.551
1620953187.459,5.859,39.062,44.434,32.715,-1.465
1620953187.463,13.672,47.852,48.828,28.809,-15.137
1620953187.467,13.672,48.828,53.223,23.438,15.137
1620953187.470,22.461,44.922,60.547,43.457,23.926
1620953187.474,32.227,41.016,60.059,70.312,25.879
1620953187.478,23.926,44.434,51.758,46.875,34.668
1620953187.482,15.625,45.410,47.852,3.906,14.648
1620953187.486,19.531,42.969,51.270,4.395,32.715
1620953187.482,25.879,41.992,46.875,7.812,8.789
1620953187.486,24.414,38.086,40.527,-3.418,8.301
1620953187.490,19.043,35.156,40.039,-5.859,32.227
1620953187.494,22.949,36.133,35.156,-2.930,14.160
1620953187.498,32.227,37.598,32.715,15.625,50.293
1620953187.502,36.621,37.598,38.086,21.484,3.418
1620953187.506,40.039,39.551,41.992,11.719,-81.055
1620953187.509,42.969,43.457,42.480,10.742,-70.801
1620953187.513,36.621,42.480,37.109,22.461,-33.203
1620953187.517,33.691,41.504,34.668,32.227,-33.691
1620953187.521,31.738,41.992,39.551,21.973,-37.598
1620953187.525,22.949,44.922,40.527,16.602,-7.324
1620953187.537,23.438,41.016,35.645,24.902,19.043
1620953187.541,17.578,34.668,34.180,34.180,20.020
1620953187.545,9.277,35.645,38.574,34.668,11.719
1620953187.549,12.207,31.738,37.598,20.996,13.672
1620953187.553,7.324,27.344,34.668,21.973,-6.348
1620953187.557,3.906,24.414,39.062,31.738,-10.742
1620953187.561,3.418,24.414,44.434,27.832,-8.789
1620953187.564,1.465,31.250,50.781,27.344,-36.133
1620953187.568,7.324,38.086,53.711,32.715,15.137
1620953187.572,15.137,36.133,48.828,37.598,83.496
1620953187.576,16.602,35.645,47.363,40.039,85.938
1620953187.580,6.836,36.621,48.340,25.391,81.055
1620953187.575,13.672,36.133,45.898,17.090,69.824
1620953187.579,35.156,33.203,45.410,20.020,14.160
1620953187.583,41.016,34.668,42.969,20.508,1.465
1620953187.587,32.227,35.156,44.434,17.578,41.992
1620953187.591,28.809,36.133,45.410,15.625,5.371
1620953187.595,35.645,37.598,37.598,18.555,6.836
1620953187.599,42.969,35.156,36.133,20.020,25.391
1620953187.602,42.969,33.203,37.109,8.789,-1.465
1620953187.606,36.133,33.691,36.133,0.488,-24.414
1620953187.610,30.273,37.598,38.086,11.230,-9.277
1620953187.614,26.855,37.598,38.086,20.508,27.832
1620953187.618,16.602,38.086,36.133,16.602,41.992
1620953187.631,19.043,43.457,36.133,10.742,20.996
1620953187.635,29.297,45.410,39.551,10.742,21.973
1620953187.639,31.738,38.086,40.527,20.508,78.125
1620953187.643,2.930,34.668,41.504,24.902,32.227
1620953187.647,-20.996,36.133,41.016,12.695,10.742
1620953187.651,-6.836,32.715,41.016,13.672,-11.230
1620953187.655,1.465,32.715,41.992,29.785,-77.637
1620953187.658,-6.348,31.250,37.598,25.391,-0.488
1620953187.662,-9.277,28.809,34.668,14.648,10.254
1620953187.666,2.441,32.227,36.133,12.695,-11.230
1620953187.670,20.020,32.227,33.203,18.555,37.598
1620953187.674,22.461,33.203,31.250,22.461,31.250
1620953187.669,10.742,38.574,41.504,13.184,25.391
1620953187.673,7.812,40.527,42.969,6.348,26.855
1620953187.677,19.531,36.621,39.551,14.648,15.625
1620953187.681,24.414,35.645,47.852,31.250,62.012
1620953187.685,21.973,39.062,47.363,34.180,14.160
1620953187.689,20.996,37.109,41.992,17.578,-16.113
1620953187.693,21.484,38.574,41.016,10.742,54.688
1620953187.696,32.715,39.551,40.039,22.949,39.062
1620953187.700,38.574,40.039,39.551,23.926,15.137
1620953187.704,41.992,41.016,38.086,16.602,24.414
1620953187.708,49.805,41.992,37.109,16.602,13.672
1620953187.712,69.336,47.852,38.086,21.973,-31.250
1620953187.725,71.777,47.363,37.109,25.391,-26.367
1620953187.729,24.414,46.875,35.156,23.926,-19.531
1620953187.733,-16.602,45.898,38.086,20.508,-15.625
1620953187.737,-12.207,44.922,38.574,24.902,30.273
1620953187.741,9.277,39.551,38.086,30.762,24.902
1620953187.745,18.066,38.086,41.504,25.391,3.418
1620953187.749,7.812,41.992,44.922,22.461,9.766
1620953187.752,2.441,41.992,44.434,29.297,15.137
1620953187.756,4.395,42.480,40.527,34.668,20.508
1620953187.760,4.883,39.062,38.086,28.809,9.277
1620953187.764,13.184,39.551,35.645,18.555,27.344
1620953187.768,10.742,38.086,35.645,23.926,22.461
1620953187.763,6.348,37.598,37.109,22.949,6.836
1620953187.767,21.484,42.969,33.691,14.160,45.898
1620953187.771,32.715,46.875,32.715,16.113,0.488
1620953187.775,37.109,52.734,37.109,6.836,-2.930
1620953187.779,32.227,51.270,38.086,11.230,-6.348
1620953187.783,28.809,45.898,42.480,24.414,-58.594
1620953187.787,36.621,44.434,49.316,22.461,-13.672
1620953187.790,32.227,45.898,52.246,28.809,12.695
1620953187.794,35.156,45.410,52.734,30.762,-21.484
1620953187.798,41.992,41.016,51.758,27.832,-18.066
1620953187.802,46.387,44.434,45.410,25.391,9.766
1620953187.806,42.969,50.293,36.621,14.160,-6.348
1620953187.818,40.527,51.270,36.621,17.090,11.719
1620953187.822,39.062,50.293,41.016,29.785,63.965
1620953187.826,33.691,53.223,42.480,28.809,59.082
1620953187.830,7.324,50.781,42.480,21.973,9.277
1620953187.834,-4.395,42.480,45.898,21.973,-63.965
1620953187.838,19.531,44.434,42.969,29.785,19.043
1620953187.842,33.691,43.457,40.039,39.062,93.750
1620953187.845,18.066,38.086,44.922,32.227,35.645
1620953187.849,8.789,35.645,41.504,24.414,-1.465
1620953187.853,26.855,37.598,40.527,32.227,15.137
1620953187.857,36.621,41.992,41.504,37.598,51.758
1620953187.861,20.020,41.992,38.086,28.809,78.613
1620953187.856,12.695,43.457,38.574,20.508,13.672
1620953187.860,22.949,41.504,38.574,20.508,31.738
1620953187.864,30.273,39.551,37.109,23.438,67.871
1620953187.868,33.691,40.527,36.621,22.949,2.930
1620953187.872,32.715,42.480,38.086,24.414,-43.457
1620953187.876,20.020,43.457,38.086,23.926,-66.895
1620953187.880,16.113,41.992,37.109,24.414,-37.109
1620953187.883,23.438,42.969,38.574,28.320,-10.254
1620953187.887,30.273,43.945,36.133,23.926,31.738
1620953187.891,30.273,43.945,38.574,25.391,9.277
1620953187.895,27.344,37.109,42.480,29.297,36.133
1620953187.899,30.273,37.598,36.621,30.273,26.855
1620953187.912,37.598,40.039,29.297,16.113,-16.113
1620953187.916,24.414,40.039,29.297,8.301,40.039
1620953187.920,23.926,40.527,33.691,22.949,31.738
1620953187.924,37.598,38.574,33.691,22.949,-15.137
1620953187.928,36.133,41.016,32.227,12.207,-29.785
1620953187.932,24.902,39.062,33.203,2.441,7.812
1620953187.936,-0.488,37.109,24.902,1.953,22.949
1620953187.939,-5.859,35.156,20.508,15.137,40.527
1620953187.943,6.836,33.691,26.855,20.020,18.555
1620953187.947,14.160,37.598,32.715,15.625,5.859
1620953187.951,6.836,37.109,37.598,7.812,3.906
1620953187.955,20.020,36.621,41.016,7.324,-3.418
1620953187.950,34.180,39.062,44.922,8.301,-23.438
1620953187.954,36.621,39.062,46.875,6.348,-4.883
1620953187.958,35.645,35.645,44.434,9.766,40.527
1620953187.962,40.039,34.180,46.875,19.531,44.434
1620953187.966,43.457,34.668,51.758,34.180,94.238
1620953187.970,14.160,35.156,50.293,31.738,25.879
1620953187.974,-12.207,35.645,49.805,24.902,-19.043
1620953187.977,-3.906,31.250,49.805,34.180,37.598
1620953187.981,8.789,29.785,50.781,41.992,44.922
1620953187.985,17.090,33.203,52.246,40.527,-43.945
1620953187.989,12.207,27.832,48.828,32.227,-26.367
1620953187.993,3.418,24.414,42.969,25.391,69.336
1620953188.006,18.066,31.738,44.922,35.156,46.875
1620953188.010,30.762,33.203,52.734,37.598,-13.184
1620953188.014,21.484,39.551,55.176,26.855,-11.230
1620953188.018,16.602,40.527,48.828,22.461,-4.883
1620953188.022,39.062,34.180,42.969,26.855,35.645
1620953188.026,65.918,39.062,39.551,27.344,58.594
1620953188.030,41.016,41.992,38.574,18.066,44.434
1620953188.033,1.465,35.645,41.504,14.160,-1.465
1620953188.037,6.836,37.598,40.039,14.160,-15.137
1620953188.041,20.996,38.574,37.598,5.371,-30.273
1620953188.045,8.301,37.109,39.551,-3.418,-22.461
1620953188.049,-1.953,40.527,41.016,-13.672,31.250
1620953188.045,7.324,33.691,41.504,-10.742,-13.672
1620953188.049,23.926,30.762,42.480,0.488,-55.664
1620953188.053,35.156,36.621,40.039,2.441,24.902
1620953188.057,30.762,38.574,41.016,2.930,107.910
1620953188.061,25.879,40.039,45.898,9.766,17.090
1620953188.065,26.367,40.527,51.270,30.762,-8.301
1620953188.069,25.391,39.062,51.270,35.156,34.180
1620953188.072,7.812,37.109,53.711,28.320,1.953
1620953188.076,9.277,37.109,62.012,36.133,6.836
1620953188.080,16.113,36.621,59.570,34.668,9.766
1620953188.084,12.695,35.645,49.805,25.879,8.301
1620953188.088,23.438,34.180,50.781,22.949,22.949
1620953188.100,21.484,32.715,54.199,21.484,-14.160
1620953188.104,20.020,32.715,53.223,26.855,-24.414
1620953188.108,40.039,34.180,54.688,28.809,31.738
1620953188.112,52.734,33.203,57.617,18.555,5.859
1620953188.116,36.621,34.668,63.477,17.090,22.949
1620953188.120,13.184,33.691,64.453,30.273,51.270
1620953188.124,20.508,32.227,59.082,26.855,-32.227
1620953188.127,34.180,30.273,60.547,9.766,12.207
1620953188.131,40.039,31.738,60.547,2.930,69.824
1620953188.135,16.602,38.574,53.711,5.859,19.531
1620953188.139,-0.488,38.574,54.199,13.672,20.020
1620953188.143,5.859,41.016,59.570,13.672,38.574
1620953188.137,-2.930,38.574,59.082,0.488,57.617
1620953188.141,-3.906,31.250,47.852,-4.883,35.156
1620953188.145,0.977,29.297,37.109,5.371,-15.625
1620953188.149,11.719,34.668,38.574,9.277,9.766
1620953188.153,11.719,32.227,41.016,0.000,59.570
1620953188.157,9.277,25.879,33.691,-8.789,59.082
1620953188.161,6.348,23.926,28.809,0.488,11.230
1620953188.164,9.277,20.508,31.738,11.719,0.977
1620953188.168,12.695,28.320,34.668,12.207,-3.418
1620953188.172,8.301,33.203,39.062,10.742,29.297
1620953188.176,13.184,31.738,36.621,14.648,69.824
1620953188.180,16.602,35.645,32.227,16.602,79.590
1620953188.193,21.973,37.109,35.156,16.113,23.438
1620953188.197,17.090,37.109,36.133,12.695,-48.828
1620953188.201,11.719,35.645,33.203,14.160,-32.715
1620953188.205,30.273,32.227,33.203,25.879,-7.812
1620953188.209,33.691,30.762,30.762,36.621,-27.344
1620953188.213,20.996,36.133,31.250,31.250,1.953
1620953188.217,14.160,35.645,36.133,17.578,10.254
1620953188.220,21.973,31.738,38.574,21.973,5.859
1620953188.224,34.668,36.133,36.621,32.227,48.340
1620953188.228,33.691,41.992,38.086,25.879,5.859
1620953188.232,23.926,41.016,42.969,16.113,-27.832
1620953188.236,25.391,41.016,44.434,20.508,-53.711
1620953188.231,27.344,42.969,41.016,29.785,-61.035
1620953188.235,15.137,39.062,40.039,23.438,-6.836
1620953188.239,2.441,36.133,42.969,9.766,-19.531
1620953188.243,8.789,36.133,41.016,15.137,-14.648
1620953188.247,25.391,35.156,40.527,29.785,5.371
1620953188.251,27.832,32.227,44.922,26.367,-6.348
1620953188.255,22.461,32.227,43.945,15.625,-37.109
1620953188.258,18.066,33.203,42.480,13.672,30.273
1620953188.262,12.207,30.273,43.945,23.438,47.363
1620953188.266,22.949,30.762,44.922,23.438,19.043
1620953188.270,16.113,32.227,39.062,4.395,57.129
1620953188.274,-0.488,32.715,35.156,-6.348,26.855
1620953188.287,0.977,33.691,31.738,4.395,24.414
1620953188.291,8.789,34.180,30.762,16.113,-6.348
1620953188.295,17.090,36.133,38.574,10.742,4.883
1620953188.299,28.320,37.598,36.621,0.488,-41.016
1620953188.303,28.320,43.945,32.227,6.348,-46.387
1620953188.307,25.879,41.992,34.180,24.414,43.945
1620953188.311,34.180,36.621,33.691,22.949,-2.930
1620953188.314,13.672,37.109,32.227,13.672,-25.391
1620953188.318,2.441,39.551,34.668,21.484,-7.324
1620953188.322,24.902,41.016,36.133,35.645,16.602
1620953188.326,28.809,38.086,37.598,45.410,17.090
1620953188.330,6.348,37.109,37.598,40.039,37.109
1620953188.326,4.395,41.016,37.109,27.344,121.094
1620953188.330,22.461,40.527,35.156,29.297,145.020
1620953188.334,32.715,41.504,32.715,32.715,80.566
1620953188.338,22.461,39.062,32.715,19.043,25.879
1620953188.342,25.879,38.574,34.668,13.184,55.664
1620953188.346,53.223,40.527,36.133,25.879,63.965
1620953188.350,51.758,35.645,30.762,20.508,30.762
1620953188.353,20.020,33.691,27.832,15.137,15.625
1620953188.357,5.371,33.691,29.785,10.742,41.992
1620953188.361,0.488,32.715,30.273,12.695,30.762
1620953188.365,12.695,39.551,26.855,20.508,-49.316
1620953188.369,15.625,40.039,26.855,15.137,-4.395
1620953188.381,6.836,35.645,28.809,0.488,15.625
1620953188.385,17.090,39.062,29.297,-4.395,-13.184
1620953188.389,22.949,36.133,31.738,2.441,11.230
1620953188.393,17.090,27.832,34.180,2.930,11.230
1620953188.397,9.277,31.738,40.527,-0.488,-8.789
1620953188.401,-9.277,35.645,42.480,-1.465,-29.785
1620953188.405,-11.719,36.133,36.133,1.953,10.742
1620953188.408,9.277,37.109,39.551,12.695,32.715
1620953188.412,15.137,36.133,40.039,10.254,37.109
1620953188.416,5.371,38.574,33.691,12.695,-2.930
1620953188.420,0.977,37.109,32.715,19.531,-25.879
1620953188.424,14.648,39.062,35.156,23.438,9.277
1620953188.437,26.855,41.992,40.039,20.508,-11.719
1620953188.441,22.461,38.574,35.645,5.859,3.906
1620953188.445,28.809,36.133,31.738,9.277,-16.113
1620953188.449,37.598,32.715,36.621,24.414,-18.066
1620953188.453,20.996,30.273,37.598,30.273,49.316
1620953188.457,10.254,29.297,38.574,26.855,20.508
1620953188.461,18.066,29.297,42.969,21.973,-62.012
1620953188.464,31.738,34.180,41.016,25.879,-74.707
1620953188.468,35.645,39.551,39.551,35.156,-21.484
1620953188.472,28.809,40.527,40.039,33.203,20.996
1620953188.476,12.695,37.109,41.016,20.020,22.461
1620953188.480,9.277,31.250,36.621,19.043,37.598
1620953188.458,27.832,32.715,32.715,32.227,36.621
1620953188.462,32.715,35.156,33.203,19.043,6.836
1620953188.466,6.348,36.621,37.109,3.418,7.324
1620953188.470,-9.766,36.621,37.109,7.812,-6.836
1620953188.474,6.836,34.180,35.645,18.066,36.133
1620953188.478,20.996,40.039,40.039,14.160,8.789
1620953188.482,15.625,40.527,44.922,3.906,-19.531
1620953188.485,4.395,40.527,45.898,8.789,58.594
1620953188.489,17.090,43.945,44.922,11.719,36.133
1620953188.493,37.109,44.434,47.363,10.254,-32.715
1620953188.497,33.691,48.828,47.852,4.395,-50.781
1620953188.501,41.504,45.898,48.340,3.418,-38.574
1620953188.512,49.316,44.922,51.758,18.555,-14.160
1620953188.516,31.738,49.316,48.828,20.996,14.648
1620953188.520,20.996,47.852,49.316,13.184,12.207
1620953188.524,14.160,48.340,50.781,12.695,25.879
1620953188.528,5.859,46.387,48.828,27.832,14.648
1620953188.532,10.254,41.992,47.852,42.969,31.738
1620953188.536,18.066,42.480,47.852,37.598,21.484
1620953188.539,20.996,41.992,55.664,31.738,10.254
1620953188.543,24.902,41.504,59.082,38.574,31.250
1620953188.547,25.879,41.016,51.270,44.434,18.066
1620953188.551,33.691,39.551,45.410,36.621,4.883
1620953188.555,34.180,40.039,48.340,22.949,-22.949
1620953188.552,25.879,41.992,51.270,27.832,51.758
1620953188.556,29.785,42.969,50.781,42.969,81.055
1620953188.560,29.297,46.875,56.641,44.922,59.082
1620953188.564,17.578,46.387,61.523,31.738,29.785
1620953188.568,10.254,46.875,58.594,28.809,4.395
1620953188.572,23.438,47.363,52.734,37.598,-20.996
1620953188.576,46.875,45.410,51.758,37.598,-1.953
1620953188.579,56.641,51.758,52.734,30.273,10.254
1620953188.583,41.016,50.781,52.734,19.043,32.715
1620953188.587,25.391,45.898,48.828,22.949,-7.812
1620953188.591,25.879,46.875,43.457,28.320,-46.875
1620953188.595,27.832,47.852,43.457,14.648,1.465
1620953188.607,21.484,50.781,43.457,12.695,10.254
1620953188.611,24.414,52.246,38.086,14.160,25.879
1620953188.615,33.691,49.316,30.762,13.672,30.762
1620953188.619,38.574,48.828,24.414,16.113,35.645
1620953188.623,36.621,49.316,27.832,16.602,36.621
1620953188.627,31.738,46.387,36.621,18.066,47.852
1620953188.631,18.555,41.016,37.598,28.320,11.230
1620953188.634,4.883,41.504,40.527,39.062,-8.301
1620953188.638,13.184,44.434,42.480,34.668,19.043
1620953188.642,33.691,44.922,40.527,38.086,5.371
1620953188.646,57.129,36.133,41.016,50.781,18.555
1620953188.650,60.547,34.180,38.086,48.828,53.711
1620953188.662,40.039,39.062,36.133,41.016,17.090
1620953188.666,28.320,34.180,37.109,38.574,-9.766
1620953188.670,30.273,34.668,32.227,36.621,-0.488
1620953188.674,36.621,41.016,38.086,39.551,-0.977
1620953188.678,43.457,44.922,44.434,34.180,31.738
1620953188.682,35.645,44.434,39.551,18.555,8.301
1620953188.686,8.301,43.945,38.574,20.020,-45.410
1620953188.689,0.488,45.410,35.156,24.414,15.625
1620953188.693,15.137,47.363,30.762,20.996,-1.953
1620953188.697,21.973,49.805,30.762,13.672,-34.668
1620953188.701,22.949,42.480,29.785,8.301,0.488
1620953188.705,33.691,42.480,30.273,17.090,-14.160
1620953188.700,34.668,47.852,32.227,19.531,-11.719
1620953188.704,35.645,45.898,35.156,9.766,-29.785
1620953188.708,49.805,46.875,35.645,5.371,-15.137
1620953188.712,29.297,44.434,34.668,10.742,66.895
1620953188.716,14.648,45.898,33.203,16.602,27.344
1620953188.720,20.020,47.852,38.574,1.465,41.504
1620953188.724,21.484,42.480,44.922,-12.207,32.715
1620953188.727,22.949,40.527,45.898,4.883,-13.184
1620953188.731,31.738,45.898,51.758,26.855,65.918
1620953188.735,34.180,48.340,59.570,32.227,47.852
1620953188.739,26.367,45.898,64.453,24.414,12.207
1620953188.743,20.508,44.434,68.359,36.133,21.973
1620953188.756,20.508,45.898,64.941,52.246,-34.668
1620953188.760,21.973,47.363,62.012,49.805,3.906
1620953188.764,23.926,45.898,62.012,44.922,71.289
1620953188.768,20.996,41.016,54.199,32.227,37.109
1620953188.772,23.438,40.039,48.340,33.691,44.922
1620953188.776,32.715,41.016,49.805,41.504,-8.301
1620953188.780,17.090,40.039,52.246,29.297,-69.336
1620953188.783,15.137,37.598,52.734,25.879,-22.949
1620953188.787,20.996,35.645,51.758,29.297,-7.812
1620953188.791,10.742,41.016,56.641,42.480,-20.996
1620953188.795,17.578,47.852,61.035,33.691,-3.906
1620953188.799,25.879,41.016,57.129,12.695,9.766
1620953188.793,23.438,41.992,51.758,12.695,-29.785
1620953188.797,44.434,49.805,48.340,20.020,-29.297
1620953188.801,54.199,49.805,48.340,18.555,-16.113
1620953188.805,32.227,50.781,56.152,4.883,-5.859
1620953188.809,19.531,49.316,56.152,9.766,16.113
1620953188.813,14.160,44.922,47.363,19.043,65.430
1620953188.817,15.625,42.480,41.504,14.160,53.223
1620953188.820,17.090,42.969,39.062,5.371,8.789
1620953188.824,18.066,45.410,39.062,4.883,18.555
1620953188.828,28.320,50.293,44.434,25.391,7.324
1620953188.832,25.391,47.852,48.340,25.879,20.020
1620953188.836,16.602,40.039,50.781,15.137,8.789
1620953188.850,26.855,39.062,53.223,17.578,-21.484
1620953188.854,27.344,37.109,46.387,21.484,-36.133
1620953188.858,18.555,38.574,43.457,28.809,5.859
1620953188.862,30.273,38.574,47.852,27.832,57.129
1620953188.866,35.156,37.598,49.805,20.996,50.293
1620953188.870,11.719,33.691,53.223,30.762,55.664
1620953188.874,7.812,28.809,54.688,44.434,48.828
1620953188.877,20.508,34.180,57.129,40.039,-10.254
1620953188.881,14.648,37.109,59.082,28.320,36.621
1620953188.885,5.371,34.180,56.641,31.738,61.523
1620953188.889,17.578,38.574,51.758,33.203,-20.996
1620953188.893,33.691,41.016,48.828,27.344,-27.344
1620953188.888,41.992,43.457,48.340,20.996,44.434
1620953188.892,39.551,48.340,47.852,12.207,68.359
1620953188.896,31.250,42.969,42.969,14.160,6.836
1620953188.900,19.043,37.598,38.086,20.508,35.645
1620953188.904,8.789,37.598,44.434,13.672,44.434
1620953188.908,11.230,36.621,50.781,2.441,26.367
1620953188.912,12.695,33.691,49.316,10.254,54.688
1620953188.915,5.859,30.762,45.898,21.484,-3.906
1620953188.919,4.883,32.715,45.898,25.879,-70.801
1620953188.923,9.277,36.133,46.875,16.602,-34.180
1620953188.927,20.020,32.715,42.480,7.324,37.598
1620953188.931,40.527,30.273,40.039,18.555,15.625
1620953188.943,50.781,32.715,35.645,20.996,-24.902
1620953188.947,46.875,34.180,34.180,15.137,-4.395
1620953188.951,37.598,33.203,35.156,16.602,32.227
1620953188.955,37.109,35.645,35.156,29.297,-5.859
1620953188.959,42.969,45.410,39.062,37.598,-25.391
1620953188.963,34.180,49.805,38.574,31.738,-20.020
1620953188.967,32.715,47.852,31.250,25.391,-10.742
1620953188.970,41.992,44.922,31.738,25.391,10.742
1620953188.974,39.551,44.922,33.691,24.902,13.184
1620953188.978,18.555,44.922,30.273,20.020,10.254
1620953188.982,13.184,41.016,32.715,14.160,-11.719
1620953188.986,13.672,42.480,33.691,21.484,2.441
1620953188.981,9.766,45.898,35.156,41.504,30.762
1620953188.985,3.418,43.457,40.527,38.086,-6.348
1620953188.989,1.953,43.457,41.016,23.926,5.859
1620953188.993,7.324,41.016,41.992,21.484,31.250
1620953188.997,5.371,38.574,43.457,35.645,-34.668
1620953189.001,-5.371,38.574,45.410,31.250,-1.465
1620953189.005,-12.695,34.180,51.758,10.254,44.922
1620953189.008,-9.766,33.691,49.805,7.324,53.711
1620953189.012,3.906,39.062,39.551,14.160,61.523
1620953189.016,25.879,42.480,32.227,14.160,70.312
1620953189.020,33.691,43.945,33.691,1.465,120.117
1620953189.024,37.598,41.992,39.551,-0.488,72.754
1620953189.037,46.875,37.598,42.480,11.719,67.383
1620953189.041,45.898,40.039,43.457,24.414,31.250
1620953189.045,46.387,46.875,39.062,20.996,1.465
1620953189.049,46.387,45.410,35.645,4.395,97.168
1620953189.053,30.273,37.109,37.109,3.418,10.254
1620953189.057,14.160,37.598,36.621,18.066,-50.293
1620953189.061,6.348,40.527,34.668,20.020,9.766
1620953189.064,2.441,39.062,34.180,11.719,26.367
1620953189.068,13.184,41.992,36.133,14.648,0.000
1620953189.072,34.180,44.922,36.621,29.785,-2.930
1620953189.076,51.270,46.875,34.180,37.598,8.789
1620953189.080,34.668,43.945,35.645,28.320,17.090
1620953189.075,5.859,42.480,39.551,26.855,76.660
1620953189.079,-3.906,42.969,36.621,40.039,42.969
1620953189.083,-6.836,36.133,36.133,51.758,-61.523
1620953189.087,-10.742,28.809,40.527,41.016,-12.695
1620953189.091,-9.277,25.879,38.086,24.902,36.133
1620953189.095,1.953,26.855,29.785,23.926,47.852
1620953189.099,17.578,29.785,26.367,30.273,49.805
1620953189.102,31.250,29.297,29.785,25.391,23.926
1620953189.106,14.648,33.203,27.344,10.254,-0.488
1620953189.110,-6.836,37.598,25.391,11.230,-27.344
1620953189.114,9.766,41.992,30.273,19.043,-33.203
1620953189.118,27.832,41.992,31.738,11.230,-26.367
1620953189.113,34.180,45.898,29.785,-10.254,-36.621
1620953189.117,43.457,49.805,32.715,-12.695,8.301
1620953189.121,41.504,46.875,31.738,3.906,55.176
1620953189.125,25.391,48.340,28.320,14.648,22.949
1620953189.129,22.461,52.246,29.785,12.207,11.719
1620953189.133,20.508,55.176,31.738,7.324,-14.160
1620953189.137,27.344,56.641,24.902,9.766,-26.367
1620953189.140,36.133,56.641,20.020,7.812,13.672
1620953189.144,27.344,54.688,27.832,2.930,77.148
1620953189.148,26.367,52.246,33.691,3.906,90.332
1620953189.152,43.945,43.457,34.668,15.625,55.176
1620953189.156,51.758,35.645,34.180,36.621,13.184
1620953189.170,29.785,35.645,32.227,40.527,-22.461
1620953189.174,8.789,35.645,32.227,27.832,-18.066
1620953189.178,3.906,34.180,35.645,27.344,20.508
1620953189.182,20.508,33.691,38.086,39.062,87.891
1620953189.186,20.020,38.086,36.133,38.086,64.941
1620953189.190,6.348,37.598,38.574,28.320,33.691
1620953189.194,18.066,35.645,39.062,29.297,84.473
1620953189.197,4.883,35.156,38.574,41.992,80.078
1620953189.201,-15.137,36.621,41.016,40.039,26.855
1620953189.205,-8.789,37.598,41.504,22.461,29.785
1620953189.209,-6.348,38.574,36.621,5.859,27.832
1620953189.213,-6.836,38.086,34.180,2.441,-26.367
1620953189.225,0.000,33.691,29.785,8.789,-23.926
1620953189.229,-3.418,34.180,23.438,0.000,4.395
1620953189.233,2.441,37.598,20.996,-12.695,44.922
1620953189.237,20.996,45.410,22.949,-5.371,26.367
1620953189.241,35.156,43.457,27.344,5.859,-42.969
1620953189.245,40.039,37.598,31.738,7.812,-31.250
1620953189.249,13.672,38.086,37.109,7.812,-19.531
1620953189.252,-13.184,33.203,41.504,2.441,-0.488
1620953189.256,-2.930,30.273,42.480,-0.488,50.781
1620953189.260,2.930,30.273,37.109,-6.348,7.812
1620953189.264,6.348,35.645,38.086,-11.230,-34.180
1620953189.268,15.625,35.645,43.457,-6.836,42.480
1620953189.263,27.832,32.227,44.922,5.859,32.227
1620953189.267,21.484,35.156,46.387,27.832,-14.160
1620953189.271,10.254,31.738,43.945,25.391,-8.789
1620953189.275,17.578,34.180,39.062,19.531,-1.953
1620953189.279,37.598,39.551,41.016,36.133,-20.508
1620953189.283,39.551,37.598,41.016,43.457,32.227
1620953189.287,36.621,42.969,39.062,36.621,85.449
1620953189.290,26.855,48.828,44.922,29.297,22.461
1620953189.294,20.020,44.922,52.246,40.039,-36.133
1620953189.298,27.832,44.434,54.688,50.781,-28.320
1620953189.302,24.902,43.945,55.176,36.133,21.484
1620953189.306,26.855,43.945,52.246,17.090,9.277
1620953189.318,19.531,44.434,50.293,13.672,-14.648
1620953189.322,19.531,41.504,54.199,27.832,16.113
1620953189.326,28.320,45.898,57.129,34.180,26.367
1620953189.330,15.137,44.434,54.688,19.043,11.719
1620953189.334,10.742,41.992,52.246,7.324,20.508
1620953189.338,21.973,40.527,54.199,10.742,26.855
1620953189.342,21.973,40.039,55.176,18.555,25.391
1620953189.345,13.672,44.922,55.176,20.020,-3.906
1620953189.349,10.742,43.457,58.105,13.184,32.227
1620953189.353,12.695,41.992,56.152,16.113,31.250
1620953189.357,9.277,38.574,51.758,18.066,-17.090
1620953189.361,3.418,36.621,50.293,3.418,4.395
1620953189.357,4.395,35.156,43.945,-2.930,11.230
1620953189.361,16.602,34.668,40.039,12.695,-1.465
1620953189.365,32.227,40.039,42.969,25.391,13.672
1620953189.369,38.574,41.016,41.992,16.113,0.000
1620953189.373,38.086,40.039,44.922,9.766,32.227
1620953189.377,42.480,41.504,53.711,16.113,42.480
1620953189.381,45.410,46.875,55.664,31.250,43.945
1620953189.384,41.992,47.852,52.734,37.598,16.113
1620953189.388,41.992,43.945,51.270,32.227,24.414
1620953189.392,48.340,43.457,50.781,34.668,11.230
1620953189.396,45.898,41.992,49.805,43.457,-25.879
1620953189.400,32.715,38.086,45.898,50.293,-6.348
1620953189.395,27.832,40.039,42.969,35.645,-23.438
1620953189.399,21.484,43.945,44.922,25.391,-15.137
1620953189.403,27.832,40.039,48.340,41.992,24.414
1620953189.407,40.039,38.086,47.363,50.781,39.062
1620953189.411,37.598,39.551,46.875,39.062,0.488
1620953189.415,26.855,41.016,45.898,29.297,-15.625
1620953189.419,17.578,43.945,43.945,28.320,-10.254
1620953189.422,22.949,45.898,44.434,34.668,18.555
1620953189.426,28.320,47.363,48.340,37.598,73.242
1620953189.430,20.508,48.828,47.852,27.344,23.438
1620953189.434,15.625,37.598,48.828,20.996,26.367
1620953189.438,23.926,34.180,52.246,27.832,5.859
1620953189.451,17.578,41.504,48.828,28.809,11.719
1620953189.455,6.836,41.504,44.922,7.812,42.969
1620953189.459,-3.418,36.133,43.457,-1.953,-51.758
1620953189.463,5.859,32.227,40.527,2.930,-18.555
1620953189.467,36.133,39.062,41.016,7.324,29.785
1620953189.471,30.762,43.457,39.551,0.977,19.531
1620953189.475,-1.465,39.062,39.062,-0.488,73.730
1620953189.478,6.836,41.504,42.969,8.301,87.402
1620953189.482,20.020,48.340,46.387,22.949,25.391
1620953189.486,29.785,49.316,50.781,36.133,-2.930
1620953189.490,30.273,46.387,49.316,22.949,-38.086
1620953189.494,27.832,47.363,46.875,21.484,-30.762
1620953189.506,40.527,49.805,44.922,35.156,-3.906
1620953189.510,49.805,49.805,40.527,32.227,21.973
1620953189.514,52.246,49.805,37.598,30.762,36.621
1620953189.518,20.996,49.316,35.645,25.879,8.301
1620953189.522,12.695,46.387,35.156,27.832,-7.812
1620953189.526,31.738,44.434,35.645,40.527,54.688
1620953189.530,32.715,44.434,36.621,33.691,58.594
1620953189.533,37.598,38.574,40.039,24.414,-8.301
1620953189.537,32.715,32.715,42.969,31.738,4.883
1620953189.541,20.020,33.203,39.551,40.527,31.738
1620953189.545,10.254,27.344,38.086,28.320,5.371
1620953189.549,-0.488,24.902,40.039,20.020,45.410
1620953189.543,-4.883,28.320,37.109,26.855,73.242
1620953189.547,10.742,32.715,44.434,25.879,19.531
1620953189.551,23.438,37.598,53.711,23.438,25.391
1620953189.555,19.531,37.598,52.246,21.973,54.199
1620953189.559,24.902,38.086,47.363,21.484,38.086
1620953189.563,30.273,39.062,52.246,29.297,27.344
1620953189.567,35.156,39.062,53.223,23.438,74.219
1620953189.570,29.785,40.039,45.410,11.230,143.066
1620953189.574,26.367,39.551,48.340,7.812,55.176
1620953189.578,29.785,38.086,51.758,16.602,-34.668
1620953189.582,29.297,40.039,52.246,19.531,-19.043
1620953189.586,26.855,44.434,54.688,20.996,-13.672
1620953189.600,19.531,35.156,54.688,25.879,-18.066
1620953189.604,26.855,32.227,54.688,31.738,-0.488
1620953189.608,33.691,43.945,51.270,47.363,25.879
1620953189.612,28.320,46.875,50.781,41.504,45.410
1620953189.616,29.297,44.922,50.781,22.461,43.457
1620953189.620,31.738,38.574,46.875,23.926,50.781
1620953189.624,35.645,35.156,48.340,35.156,-12.695
1620953189.627,32.227,38.574,50.781,37.109,-28.809
1620953189.631,5.371,37.598,46.387,13.184,29.297
1620953189.635,-0.488,37.598,42.969,1.465,-21.484
1620953189.639,16.602,34.668,37.598,14.160,-16.113
1620953189.643,28.320,35.156,33.691,12.207,20.508
1620953189.637,27.832,42.480,34.668,3.418,49.316
1620953189.641,27.344,41.992,35.156,2.930,100.098
1620953189.645,24.902,38.574,31.738,9.766,66.895
1620953189.649,22.461,38.574,31.738,22.461,13.672
1620953189.653,37.598,39.551,33.203,22.461,-14.160
1620953189.657,40.039,42.480,38.086,12.695,-3.906
1620953189.661,25.879,40.527,45.410,19.531,1.953
1620953189.664,16.113,41.504,42.480,42.480,21.484
1620953189.668,8.789,41.016,38.574,42.480,-5.859
1620953189.672,2.930,38.086,37.598,25.391,3.418
1620953189.676,2.930,41.992,41.992,32.227,52.246
1620953189.680,26.855,41.992,46.387,39.551,-5.859
1620953189.676,46.387,44.434,43.945,36.621,-10.254
1620953189.680,42.480,41.016,38.574,27.832,61.523
1620953189.684,17.578,32.227,34.180,24.414,25.879
1620953189.688,7.812,36.621,33.203,39.551,-56.641
1620953189.692,19.043,39.062,34.180,41.504,-42.480
1620953189.696,24.414,40.039,34.668,28.320,12.207
1620953189.700,20.508,37.109,30.762,22.461,-31.738
1620953189.703,14.648,35.645,25.879,23.438,-36.621
1620953189.707,23.438,35.645,29.785,20.508,12.207
1620953189.711,32.227,38.086,38.574,12.207,-1.953
1620953189.715,38.574,41.992,44.922,5.859,-3.418
1620953189.719,38.574,42.969,44.922,15.137,40.527
1620953189.732,31.250,43.457,45.898,18.066,27.344
1620953189.736,8.789,42.969,41.016,8.789,23.438
1620953189.740,-12.207,39.062,42.480,6.348,5.859
1620953189.744,-14.160,38.574,44.434,7.324,-21.973
1620953189.748,3.418,42.969,39.551,19.531,78.613
1620953189.752,27.832,40.527,42.480,21.973,99.609
1620953189.756,32.227,37.598,49.316,6.836,4.883
1620953189.759,24.902,39.062,53.711,12.207,-3.906
1620953189.763,27.344,39.062,53.223,29.785,12.695
1620953189.767,30.762,36.133,50.293,36.133,-0.488
1620953189.771,32.715,36.133,53.223,33.691,23.926
1620953189.775,35.645,43.945,59.082,37.598,-19.531
1620953189.770,44.922,36.621,57.129,43.457,-12.207
1620953189.774,50.781,32.227,51.270,37.109,-22.461
1620953189.778,42.969,45.410,51.270,28.320,-36.133
1620953189.782,35.156,43.945,53.711,22.461,-0.977
1620953189.786,36.133,40.527,51.270,23.926,-18.066
1620953189.790,50.781,39.062,43.945,24.414,-62.012
1620953189.794,48.340,33.691,41.504,23.438,-11.230
1620953189.797,39.062,38.574,41.992,19.043,40.039
1620953189.801,34.668,38.574,43.457,16.602,13.672
1620953189.805,17.578,30.762,47.852,22.949,16.602
1620953189.809,12.695,33.203,50.293,24.902,36.621
1620953189.813,-1.953,30.762,49.316,14.648,35.645
1620953189.825,-13.184,28.320,48.828,10.254,30.273
1620953189.829,0.488,31.738,51.270,19.531,41.992
1620953189.833,25.391,33.691,49.316,23.926,13.672
1620953189.837,32.715,34.668,43.457,10.742,6.836
1620953189.841,21.484,38.086,42.480,16.602,13.184
1620953189.845,20.020,39.062,43.945,27.344,-26.855
1620953189.849,22.461,36.621,47.363,32.227,0.977
1620953189.852,25.879,41.992,49.316,37.598,20.020
1620953189.856,25.391,42.480,44.922,29.297,-22.949
1620953189.860,20.996,37.598,44.434,37.109,10.742
1620953189.864,32.227,42.480,45.410,47.852,50.293
1620953189.868,36.133,46.875,47.363,43.945,15.137
1620953189.863,26.367,44.434,47.852,35.156,-43.945
1620953189.867,25.879,41.992,47.852,36.621,-10.254
1620953189.871,34.668,43.457,49.316,44.434,10.742
1620953189.875,41.016,47.363,45.410,40.039,-33.691
1620953189.879,37.109,45.898,43.945,34.668,25.879
1620953189.883,41.016,42.969,48.340,30.762,25.391
1620953189.887,28.320,45.898,46.387,25.879,-33.691
1620953189.890,16.113,42.969,38.086,28.809,11.719
1620953189.894,24.902,40.039,38.086,24.414,50.781
1620953189.898,13.184,39.062,39.062,10.254,21.973
1620953189.902,14.648,35.645,36.133,6.348,29.785
1620953189.906,28.320,34.668,40.039,18.555,75.684
1620953189.937,34.180,37.109,39.062,18.555,56.641
1620953189.941,16.602,37.598,41.504,11.230,19.043
1620953189.945,3.418,38.574,48.828,16.113,53.223
1620953189.949,23.926,40.039,45.410,18.555,75.195
1620953189.953,46.387,46.387,42.969,28.809,54.688
1620953189.957,23.926,45.410,44.922,25.391,8.301
1620953189.961,7.812,37.109,39.062,14.648,-20.020
1620953189.964,19.043,43.457,39.551,24.902,33.691
1620953189.968,19.043,49.316,43.457,29.785,20.508
1620953189.972,24.902,47.852,44.434,25.391,-17.578
1620953189.976,20.508,44.434,44.434,14.160,-60.547
1620953189.980,18.066,40.039,43.457,19.531,-53.223
1620953189.958,28.809,43.457,45.410,28.809,-31.250
1620953189.962,47.852,48.828,44.922,20.996,46.875
1620953189.966,46.387,44.434,41.016,9.766,113.770
1620953189.970,33.203,47.852,41.504,8.301,62.012
1620953189.974,47.852,54.199,39.551,20.508,11.230
1620953189.978,36.621,48.828,39.551,24.414,69.336
1620953189.982,7.812,44.922,40.039,20.996,82.031
1620953189.985,3.418,44.434,41.992,23.926,8.301
1620953189.989,-1.465,42.969,44.434,31.738,-44.922
1620953189.993,10.254,40.527,42.480,34.668,-21.973
1620953189.997,18.066,40.527,35.645,21.973,6.348
1620953190.001,11.719,42.969,29.785,13.184,-15.137
1620953190.013,15.625,45.898,35.156,20.508,-1.953
1620953190.017,24.902,46.875,40.039,20.996,7.812
1620953190.021,29.785,47.363,42.969,8.789,-16.113
1620953190.025,31.250,48.828,46.387,-4.883,30.273
1620953190.029,36.621,46.387,53.223,8.301,50.293
1620953190.033,35.645,33.691,53.711,27.832,25.391
1620953190.037,37.598,33.691,45.898,28.320,-17.578
1620953190.040,38.086,42.480,43.457,18.555,27.832
1620953190.044,36.621,44.434,46.875,27.344,24.414
1620953190.048,37.598,46.387,46.875,39.062,-58.594
1620953190.052,26.855,42.969,45.410,37.109,0.488
1620953190.056,20.020,40.527,41.016,22.461,21.973
1620953190.068,12.695,41.992,33.691,10.742,-5.371
1620953190.072,20.508,39.551,35.645,18.555,52.246
1620953190.076,47.363,39.551,40.527,26.367,51.758
1620953190.080,37.109,39.062,41.016,26.367,17.578
1620953190.084,24.902,36.133,39.062,22.949,-0.977
1620953190.088,27.344,36.133,32.715,29.297,-18.555
1620953190.092,18.555,35.156,31.738,39.551,13.184
1620953190.095,18.555,39.062,36.133,38.086,-8.789
1620953190.099,12.695,43.945,35.645,27.344,-38.574
1620953190.103,10.742,41.016,35.645,22.949,-49.805
1620953190.107,2.441,34.180,32.715,31.250,-87.402
1620953190.111,5.859,33.691,33.691,27.344,-17.090
1620953190.106,12.695,38.574,38.086,6.836,45.898
1620953190.110,9.766,35.156,34.180,3.418,-4.883
1620953190.114,19.531,33.691,27.832,18.555,11.230
1620953190.118,25.391,40.527,30.273,20.020,51.270
1620953190.122,27.344,44.922,30.762,6.348,19.043
1620953190.126,28.320,43.945,28.320,-0.488,6.348
1620953190.130,26.855,41.016,31.250,8.301,82.031
1620953190.133,24.414,34.668,34.180,22.461,33.203
1620953190.137,24.902,31.250,37.109,19.531,-49.316
1620953190.141,32.715,35.645,38.574,10.254,-32.227
1620953190.145,36.133,40.039,38.086,23.926,33.691
1620953190.149,21.484,40.039,40.527,35.156,63.965
1620953190.162,21.973,40.527,43.945,28.809,-32.227
1620953190.166,20.508,38.086,45.410,24.414,-72.754
1620953190.170,21.484,31.738,47.363,34.180,23.926
1620953190.174,25.391,35.645,50.781,40.527,67.383
1620953190.178,20.020,41.992,47.363,27.832,12.207
1620953190.182,15.137,45.898,43.945,19.531,15.625
1620953190.186,13.184,43.457,45.410,20.508,22.949
1620953190.189,19.043,40.527,46.875,17.090,1.465
1620953190.193,21.973,39.062,45.410,17.578,23.926
1620953190.197,18.066,41.504,43.945,18.066,37.598
1620953190.201,14.160,41.992,41.504,4.395,60.547
1620953190.205,24.414,37.598,40.527,9.766,36.133
1620953190.200,47.852,34.180,38.086,15.625,-13.672
1620953190.204,49.805,37.109,32.227,6.348,-20.508
1620953190.208,30.762,36.621,32.715,7.324,16.113
1620953190.212,29.785,41.992,36.133,30.762,51.758
1620953190.216,41.504,47.363,42.480,40.527,28.809
1620953190.220,26.855,44.434,45.898,30.762,20.020
1620953190.224,3.906,41.504,40.039,25.879,-11.230
1620953190.227,4.395,40.039,41.504,34.180,2.441
1620953190.231,4.883,36.133,46.387,41.504,7.812
1620953190.235,14.160,36.621,45.898,37.598,-18.066
1620953190.239,10.254,38.574,44.434,27.344,12.695
1620953190.243,8.301,32.715,45.410,25.391,30.762
1620953190.238,25.879,31.250,45.410,41.504,15.625
1620953190.242,35.645,38.086,48.340,46.875,12.695
1620953190.246,34.180,38.086,55.664,35.645,10.742
1620953190.250,29.785,28.320,52.734,29.785,-19.043
1620953190.254,28.809,22.461,47.363,32.227,-35.156
1620953190.258,33.691,25.391,45.410,24.902,-18.066
1620953190.262,34.668,31.738,48.828,15.137,23.926
1620953190.265,28.809,36.621,46.387,9.766,50.293
1620953190.269,25.879,37.598,41.992,16.602,24.414
1620953190.273,22.461,33.691,40.039,29.785,-3.906
1620953190.277,26.855,33.691,34.180,23.926,-12.207
1620953190.281,34.180,36.133,36.133,8.789,-10.254
1620953190.295,46.387,34.180,37.598,8.789,4.395
1620953190.299,55.664,32.227,29.785,9.766,43.457
1620953190.303,23.926,33.691,34.180,17.578,3.418
1620953190.307,-18.066,32.715,42.969,11.719,-1.465
1620953190.311,-7.324,33.203,41.992,11.719,20.020
1620953190.315,13.672,34.180,41.016,23.438,37.598
1620953190.319,21.973,34.180,46.387,24.902,80.078
1620953190.322,29.297,39.551,46.875,20.020,81.055
1620953190.326,33.691,41.016,40.039,19.531,39.551
1620953190.330,28.320,40.039,37.598,30.273,-0.977
1620953190.334,15.625,41.992,40.527,37.598,-72.754
1620953190.338,19.043,43.457,42.969,33.203,-39.062
1620953190.350,15.625,44.434,45.898,17.578,62.012
1620953190.354,15.625,41.992,49.805,20.996,70.801
1620953190.358,23.926,38.086,51.758,32.227,32.227
1620953190.362,36.133,41.992,47.363,25.391,-20.508
1620953190.366,28.809,41.504,41.016,23.438,-6.836
1620953190.370,21.973,35.645,37.598,25.391,27.344
1620953190.374,32.715,37.109,34.668,34.180,12.207
1620953190.377,37.109,39.551,38.574,45.410,41.016
1620953190.381,28.320,44.434,43.457,37.598,38.086
1620953190.385,28.320,47.363,41.016,28.809,31.738
1620953190.389,49.316,45.898,41.016,31.250,9.766
1620953190.393,63.477,44.434,44.922,32.715,-32.715
1620953190.387,54.199,44.434,44.434,27.344,-30.762
1620953190.391,40.527,47.363,42.480,31.250,-10.254
1620953190.395,47.852,49.316,36.133,38.574,12.207
1620953190.399,55.176,47.363,34.668,33.691,2.441
1620953190.403,38.574,43.945,35.645,27.344,-26.367
1620953190.407,13.672,49.805,35.156,23.926,-6.836
1620953190.411,20.508,49.316,35.156,20.508,48.340
1620953190.414,33.691,41.992,35.156,22.461,4.395
1620953190.418,33.203,42.480,37.598,18.555,-42.480
1620953190.422,29.297,43.457,46.387,14.648,36.621
1620953190.426,19.531,41.992,47.852,20.020,71.777
1620953190.430,16.113,40.039,40.527,25.391,26.855
1620953190.443,29.297,41.016,39.062,30.762,-14.648
1620953190.447,19.043,40.039,41.016,25.879,22.461
1620953190.451,-0.488,38.574,38.086,16.113,57.129
1620953190.455,5.859,40.527,31.250,17.090,21.973
1620953190.459,17.090,31.738,31.738,24.902,22.461
1620953190.463,25.391,30.762,39.551,24.414,50.293
1620953190.467,9.766,37.109,41.504,11.719,10.742
1620953190.470,-2.930,32.715,40.039,13.184,-3.418
1620953190.474,6.836,31.250,39.062,23.926,46.875
1620953190.478,29.785,33.691,37.598,16.113,23.438
1620953190.482,27.344,32.715,41.992,9.766,18.555
1620953190.486,5.859,34.180,44.922,19.043,43.457
1620953190.481,24.414,38.574,39.062,20.996,-4.395
1620953190.485,48.828,41.016,31.738,7.812,6.836
1620953190.489,43.457,39.062,30.273,0.488,19.043
1620953190.493,27.832,34.668,29.785,1.953,20.996
1620953190.497,14.160,38.574,24.414,15.625,-4.395
1620953190.501,7.324,45.410,20.508,18.555,-33.691
1620953190.505,7.324,43.457,23.926,2.930,-46.875
1620953190.508,14.648,41.992,28.320,-3.906,4.883
1620953190.512,20.508,41.016,27.344,2.441,48.828
1620953190.516,24.414,38.574,29.785,11.719,14.160
1620953190.520,25.391,41.016,33.691,5.371,2.930
1620953190.524,2.441,38.086,36.621,-1.953,-1.953
1620953190.520,-7.324,37.109,37.109,7.812,34.668
1620953190.524,2.930,39.062,31.738,18.066,36.133
1620953190.528,-2.441,36.133,33.691,28.809,29.297
1620953190.532,-10.254,32.715,34.668,22.949,61.035
1620953190.536,-12.695,31.250,32.715,15.137,21.973
1620953190.540,1.465,29.785,40.527,28.809,-13.184
1620953190.544,12.695,27.832,44.922,30.273,-8.301
1620953190.547,8.301,27.832,45.410,20.996,-63.965
1620953190.551,7.812,31.250,42.480,18.066,-66.895
1620953190.555,20.996,36.621,40.039,25.879,-38.086
1620953190.559,22.949,38.086,44.922,25.391,4.883
1620953190.563,14.160,35.645,48.828,16.602,36.621
1620953190.594,19.531,34.668,55.664,14.160,23.926
1620953190.598,37.109,34.180,55.664,20.508,-9.277
1620953190.602,58.594,33.691,45.410,28.320,-19.043
1620953190.606,51.758,35.156,46.387,21.973,43.945
1620953190.610,41.992,37.598,52.734,4.883,41.504
1620953190.614,43.457,40.039,49.316,10.742,-27.344
1620953190.618,36.621,38.086,49.316,25.879,-39.551
1620953190.621,22.949,33.203,51.758,20.508,5.859
1620953190.625,30.273,34.180,50.781,14.648,63.477
1620953190.629,35.156,38.086,52.246,16.113,49.805
1620953190.633,25.879,39.062,46.387,19.043,6.348
1620953190.637,21.973,37.109,43.945,22.949,-16.113
1620953190.613,14.648,41.992,46.875,18.066,-5.859
1620953190.617,7.324,41.504,45.898,12.207,36.621
1620953190.621,7.324,36.133,48.828,27.832,50.293
1620953190.625,10.742,38.086,51.758,39.551,17.090
1620953190.629,1.953,40.527,50.781,30.762,24.902
1620953190.633,-2.930,31.738,48.828,14.648,22.461
1620953190.637,4.395,24.902,46.387,16.602,-12.207
1620953190.640,17.578,33.203,43.945,29.297,11.230
1620953190.644,14.648,40.527,48.828,23.438,-15.137
1620953190.648,9.277,42.480,52.734,11.719,-33.691
1620953190.652,10.742,38.086,51.758,15.625,7.324
1620953190.656,16.602,34.668,50.781,26.855,23.438
1620953190.668,15.625,31.738,49.316,29.785,29.297
1620953190.672,2.441,29.785,48.828,17.578,36.621
1620953190.676,2.441,29.297,44.434,19.043,32.715
1620953190.680,9.277,32.227,38.086,29.297,28.809
1620953190.684,17.090,35.156,39.062,31.250,-4.883
1620953190.688,24.902,37.598,38.086,26.367,25.391
1620953190.692,34.180,38.086,32.227,13.184,60.547
1620953190.695,61.523,36.133,30.273,14.648,44.434
1620953190.699,63.477,35.645,31.250,21.973,21.484
1620953190.703,16.113,39.062,35.156,22.949,-12.695
1620953190.707,4.395,44.922,39.551,20.996,21.973
1620953190.711,28.809,43.945,40.039,20.508,45.410
1620953190.707,34.668,33.691,31.738,26.855,42.480
1620953190.711,23.438,32.715,29.785,20.508,-6.348
1620953190.715,8.789,40.527,34.180,6.836,20.996
1620953190.719,9.766,38.086,28.809,8.789,56.152
1620953190.723,39.551,38.086,20.996,15.625,41.504
1620953190.727,37.109,37.109,23.926,12.695,29.785
1620953190.731,12.207,32.227,31.250,4.395,-13.184
1620953190.734,10.254,37.109,27.832,7.324,35.156
1620953190.738,28.809,33.691,22.949,18.555,42.969
1620953190.742,39.062,30.762,28.320,26.855,-1.953
1620953190.746,23.438,36.133,33.691,15.625,-10.254
1620953190.750,6.836,44.434,35.645,6.348,22.949
1620953190.762,11.719,42.480,40.527,20.996,27.832
1620953190.766,24.414,37.598,42.480,27.832,37.598
1620953190.770,26.367,42.480,44.434,20.508,-19.043
1620953190.774,32.227,41.992,41.992,11.230,-54.688
1620953190.778,36.133,35.645,41.016,19.531,-24.902
1620953190.782,36.621,40.039,40.527,31.250,-8.301
1620953190.786,25.391,41.504,36.133,27.832,-9.277
1620953190.789,16.113,35.645,39.551,23.438,-11.230
1620953190.793,26.855,39.062,40.527,27.832,-41.992
1620953190.797,24.902,41.016,37.598,37.598,-79.102
1620953190.801,0.000,37.109,37.109,33.203,-41.992
1620953190.805,-20.020,42.969,35.645,23.926,0.000
1620953190.801,-7.324,47.852,28.809,21.484,25.879
1620953190.805,12.695,46.387,33.691,28.809,23.438
1620953190.809,18.066,44.434,39.551,37.598,40.527
1620953190.813,22.949,43.457,40.527,21.484,84.961
1620953190.817,28.809,47.852,45.410,13.672,76.660
1620953190.821,35.645,46.387,48.340,37.109,36.621
1620953190.825,49.805,49.316,46.387,46.387,51.270
1620953190.828,42.969,50.293,41.504,29.785,-20.508
1620953190.832,28.809,48.828,40.039,16.602,-55.176
1620953190.836,27.344,50.781,39.062,18.066,44.434
1620953190.840,35.156,45.410,38.086,24.414,121.582
1620953190.844,52.246,49.805,41.504,14.160,31.738
1620953190.857,38.086,48.340,41.992,-0.977,-41.992
1620953190.861,31.250,39.551,38.574,1.953,46.387
1620953190.865,36.621,45.410,38.574,10.254,39.062
1620953190.869,5.371,45.410,41.016,12.207,-26.367
1620953190.873,-5.859,42.969,41.504,8.301,0.000
1620953190.877,6.836,41.992,41.504,2.441,31.738
1620953190.881,17.090,37.109,37.598,10.254,23.926
1620953190.884,44.922,36.133,39.062,23.438,11.230
1620953190.888,26.855,30.273,43.457,28.320,-14.648
1620953190.892,-14.648,20.020,47.363,29.785,14.648
1620953190.896,-2.441,21.484,57.617,36.133,63.477
1620953190.900,20.508,22.949,64.453,38.086,24.902
1620953190.912,36.621,19.531,64.453,31.738,-41.504
1620953190.916,38.086,18.555,62.500,30.273,-17.578
1620953190.920,37.598,18.555,59.082,29.785,35.645
1620953190.924,39.062,12.695,49.805,35.156,23.438
1620953190.928,21.973,3.906,42.969,34.668,24.414
1620953190.932,18.555,2.441,42.480,16.602,36.133
1620953190.936,27.832,2.441,45.410,19.531,17.578
